%OpenBCI Raw EEG Data
%
%Sample Rate = 250.0 Hz
%First Column = SampleIndex
%Other Columns = EEG data in microvolts with optional columns at end being unscaled Aux data
0, 187500.00, -118850.95, 187500.00, 187500.00, 187500.00, 187500.00, 187500.00, 187500.00, 0
1, 187500.00, -119465.04, 187500.00, 187500.00, 187500.00, 187500.00, 187500.00, 187500.00, 0
2, 187500.00, -118498.38, 187500.00, 187500.00, 187500.00, 187500.00, 187500.00, 187500.00, 0
3, 187500.00, -117984.22, 187500.00, 187500.00, 187500.00, 187500.00, 187500.00, 187500.00, 0
4, 187500.00, -118644.48, 187500.00, 187500.00, 187500.00, 187500.00, 187500.00, 187500.00, 0
5, 187500.00, -119492.06, 187500.00, 187500.00, 187500.00, 187500.00, 187500.00, 187500.00, 0
6, 187500.00, -118700.70, 187500.00, 187500.00, 187500.00, 187500.00, 187500.00, 187500.00, 0
7, 187500.00, -117987.97, 187500.00, 187500.00, 187500.00, 187500.00, 187500.00, 187500.00, 0
8, 187500.00, -118472.73, 187500.00, 187500.00, 187500.00, 187500.00, 187500.00, 187500.00, 0
9, 187500.00, -119445.64, 187500.00, 187500.00, 187500.00, 187500.00, 187500.00, 187500.00, 0
10, 187500.00, -118896.79, 187500.00, 187500.00, 187500.00, 187500.00, 187500.00, 187500.00, 0
11, 187500.00, -118012.78, 187500.00, 187500.00, 187500.00, 187500.00, 187500.00, 187500.00, 0
12, 187500.00, -118305.32, 187500.00, 187500.00, 187500.00, 187500.00, 187500.00, 187500.00, 0
13, 187500.00, -119339.13, 187500.00, 187500.00, 187500.00, 187500.00, 187500.00, 187500.00, 0
14, 187500.00, -119085.93, 187500.00, 187500.00, 187500.00, 187500.00, 187500.00, 187500.00, 0
15, 187500.00, -118086.88, 187500.00, 187500.00, 187500.00, 187500.00, 187500.00, 187500.00, 0
16, 187500.00, -118153.87, 187500.00, 187500.00, 187500.00, 187500.00, 187500.00, 187500.00, 0
17, 187500.00, -119172.99, 187500.00, 187500.00, 187500.00, 187500.00, 187500.00, 187500.00, 0
18, 187500.00, -119259.09, 187500.00, 187500.00, 187500.00, 187500.00, 187500.00, 187500.00, 0
19, 187500.00, -118184.38, 187500.00, 187500.00, 187500.00, 187500.00, 187500.00, 187500.00, 0
20, 187500.00, -118030.87, 187500.00, 187500.00, 187500.00, 187500.00, 187500.00, 187500.00, 0
21, 187500.00, -118994.56, 187500.00, 187500.00, 187500.00, 187500.00, 187500.00, 187500.00, 0
22, 187500.00, -119416.36, 187500.00, 187500.00, 187500.00, 187500.00, 187500.00, 187500.00, 0
23, 187500.00, -118368.89, 187500.00, 187500.00, 187500.00, 187500.00, 187500.00, 187500.00, 0
24, 187500.00, -118012.67, 187500.00, 187500.00, 187500.00, 187500.00, 187500.00, 187500.00, 0
25, 187500.00, -118807.50, 187500.00, 187500.00, 187500.00, 187500.00, 187500.00, 187500.00, 0
26, 187500.00, -119456.81, 187500.00, 187500.00, 187500.00, 187500.00, 187500.00, 187500.00, 0
27, 187500.00, -118523.20, 187500.00, 187500.00, 187500.00, 187500.00, 187500.00, 187500.00, 0
28, 187500.00, -117990.54, 187500.00, 187500.00, 187500.00, 187500.00, 187500.00, 187500.00, 0
29, 187500.00, -118614.34, 187500.00, 187500.00, 187500.00, 187500.00, 187500.00, 187500.00, 0
30, 187500.00, -119470.52, 187500.00, 187500.00, 187500.00, 187500.00, 187500.00, 187500.00, 0
31, 187500.00, -118722.00, 187500.00, 187500.00, 187500.00, 187500.00, 187500.00, 187500.00, 0
32, 187500.00, -117992.69, 187500.00, 187500.00, 187500.00, 187500.00, 187500.00, 187500.00, 0
33, 187500.00, -118443.56, 187500.00, 187500.00, 187500.00, 187500.00, 187500.00, 187500.00, 0
34, 187500.00, -119419.78, 187500.00, 187500.00, 187500.00, 187500.00, 187500.00, 187500.00, 0
35, 187500.00, -118929.85, 187500.00, 187500.00, 187500.00, 187500.00, 187500.00, 187500.00, 0
36, 187500.00, -118031.60, 187500.00, 187500.00, 187500.00, 187500.00, 187500.00, 187500.00, 0
37, 187500.00, -118275.39, 187500.00, 187500.00, 187500.00, 187500.00, 187500.00, 187500.00, 0
38, 187500.00, -119290.30, 187500.00, 187500.00, 187500.00, 187500.00, 187500.00, 187500.00, 0
39, 187500.00, -119122.55, 187500.00, 187500.00, 187500.00, 187500.00, 187500.00, 187500.00, 0
40, 187500.00, -118115.91, 187500.00, 187500.00, 187500.00, 187500.00, 187500.00, 187500.00, 0
41, 187500.00, -118168.30, 187500.00, 187500.00, 187500.00, 187500.00, 187500.00, 187500.00, 0
42, 187500.00, -119164.39, 187500.00, 187500.00, 187500.00, 187500.00, 187500.00, 187500.00, 0
43, 187500.00, -119326.84, 187500.00, 187500.00, 187500.00, 187500.00, 187500.00, 187500.00, 0
44, 187500.00, -118278.81, 187500.00, 187500.00, 187500.00, 187500.00, 187500.00, 187500.00, 0
45, 187500.00, -118076.02, 187500.00, 187500.00, 187500.00, 187500.00, 187500.00, 187500.00, 0
46, 187500.00, -118949.54, 187500.00, 187500.00, 187500.00, 187500.00, 187500.00, 187500.00, 0
47, 187500.00, -119419.29, 187500.00, 187500.00, 187500.00, 187500.00, 187500.00, 187500.00, 0
48, 187500.00, -118397.99, 187500.00, 187500.00, 187500.00, 187500.00, 187500.00, 187500.00, 0
49, 187500.00, -117990.79, 187500.00, 187500.00, 187500.00, 187500.00, 187500.00, 187500.00, 0
50, 187500.00, -118740.17, 187500.00, 187500.00, 187500.00, 187500.00, 187500.00, 187500.00, 0
51, 187500.00, -119467.70, 187500.00, 187500.00, 187500.00, 187500.00, 187500.00, 187500.00, 0
52, 187500.00, -118589.30, 187500.00, 187500.00, 187500.00, 187500.00, 187500.00, 187500.00, 0
53, 187500.00, -117968.57, 187500.00, 187500.00, 187500.00, 187500.00, 187500.00, 187500.00, 0
54, 187500.00, -118534.29, 187500.00, 187500.00, 187500.00, 187500.00, 187500.00, 187500.00, 0
55, 187500.00, -119457.28, 187500.00, 187500.00, 187500.00, 187500.00, 187500.00, 187500.00, 0
56, 187500.00, -118810.11, 187500.00, 187500.00, 187500.00, 187500.00, 187500.00, 187500.00, 0
57, 187500.00, -118009.65, 187500.00, 187500.00, 187500.00, 187500.00, 187500.00, 187500.00, 0
58, 187500.00, -118374.72, 187500.00, 187500.00, 187500.00, 187500.00, 187500.00, 187500.00, 0
59, 187500.00, -119368.62, 187500.00, 187500.00, 187500.00, 187500.00, 187500.00, 187500.00, 0
60, 187500.00, -118992.28, 187500.00, 187500.00, 187500.00, 187500.00, 187500.00, 187500.00, 0
61, 187500.00, -118059.83, 187500.00, 187500.00, 187500.00, 187500.00, 187500.00, 187500.00, 0
62, 187500.00, -118228.92, 187500.00, 187500.00, 187500.00, 187500.00, 187500.00, 187500.00, 0
63, 187500.00, -119238.48, 187500.00, 187500.00, 187500.00, 187500.00, 187500.00, 187500.00, 0
64, 187500.00, -119188.75, 187500.00, 187500.00, 187500.00, 187500.00, 187500.00, 187500.00, 0
65, 187500.00, -118162.80, 187500.00, 187500.00, 187500.00, 187500.00, 187500.00, 187500.00, 0
66, 187500.00, -118120.34, 187500.00, 187500.00, 187500.00, 187500.00, 187500.00, 187500.00, 0
67, 187500.00, -119068.72, 187500.00, 187500.00, 187500.00, 187500.00, 187500.00, 187500.00, 0
68, 187500.00, -119331.83, 187500.00, 187500.00, 187500.00, 187500.00, 187500.00, 187500.00, 0
69, 187500.00, -118316.05, 187500.00, 187500.00, 187500.00, 187500.00, 187500.00, 187500.00, 0
70, 187500.00, -118054.96, 187500.00, 187500.00, 187500.00, 187500.00, 187500.00, 187500.00, 0
71, 187500.00, -118892.68, 187500.00, 187500.00, 187500.00, 187500.00, 187500.00, 187500.00, 0
72, 187500.00, -119457.91, 187500.00, 187500.00, 187500.00, 187500.00, 187500.00, 187500.00, 0
73, 187500.00, -118469.94, 187500.00, 187500.00, 187500.00, 187500.00, 187500.00, 187500.00, 0
74, 187500.00, -117990.85, 187500.00, 187500.00, 187500.00, 187500.00, 187500.00, 187500.00, 0
75, 187500.00, -118681.16, 187500.00, 187500.00, 187500.00, 187500.00, 187500.00, 187500.00, 0
76, 187500.00, -119472.53, 187500.00, 187500.00, 187500.00, 187500.00, 187500.00, 187500.00, 0
77, 187500.00, -118650.55, 187500.00, 187500.00, 187500.00, 187500.00, 187500.00, 187500.00, 0
78, 187500.00, -117976.86, 187500.00, 187500.00, 187500.00, 187500.00, 187500.00, 187500.00, 0
79, 187500.00, -118491.55, 187500.00, 187500.00, 187500.00, 187500.00, 187500.00, 187500.00, 0
80, 187500.00, -119440.55, 187500.00, 187500.00, 187500.00, 187500.00, 187500.00, 187500.00, 0
81, 187500.00, -118869.97, 187500.00, 187500.00, 187500.00, 187500.00, 187500.00, 187500.00, 0
82, 187500.00, -118014.30, 187500.00, 187500.00, 187500.00, 187500.00, 187500.00, 187500.00, 0
83, 187500.00, -118316.66, 187500.00, 187500.00, 187500.00, 187500.00, 187500.00, 187500.00, 0
84, 187500.00, -119335.04, 187500.00, 187500.00, 187500.00, 187500.00, 187500.00, 187500.00, 0
85, 187500.00, -119069.52, 187500.00, 187500.00, 187500.00, 187500.00, 187500.00, 187500.00, 0
86, 187500.00, -118079.14, 187500.00, 187500.00, 187500.00, 187500.00, 187500.00, 187500.00, 0
87, 187500.00, -118153.53, 187500.00, 187500.00, 187500.00, 187500.00, 187500.00, 187500.00, 0
88, 187500.00, -119186.31, 187500.00, 187500.00, 187500.00, 187500.00, 187500.00, 187500.00, 0
89, 187500.00, -119259.74, 187500.00, 187500.00, 187500.00, 187500.00, 187500.00, 187500.00, 0
90, 187500.00, -118196.63, 187500.00, 187500.00, 187500.00, 187500.00, 187500.00, 187500.00, 0
91, 187500.00, -118088.38, 187500.00, 187500.00, 187500.00, 187500.00, 187500.00, 187500.00, 0
92, 187500.00, -119018.90, 187500.00, 187500.00, 187500.00, 187500.00, 187500.00, 187500.00, 0
93, 187500.00, -119374.70, 187500.00, 187500.00, 187500.00, 187500.00, 187500.00, 187500.00, 0
94, 187500.00, -118324.27, 187500.00, 187500.00, 187500.00, 187500.00, 187500.00, 187500.00, 0
95, 187500.00, -117996.45, 187500.00, 187500.00, 187500.00, 187500.00, 187500.00, 187500.00, 0
96, 187500.00, -118823.59, 187500.00, 187500.00, 187500.00, 187500.00, 187500.00, 187500.00, 0
97, 187500.00, -119478.30, 187500.00, 187500.00, 187500.00, 187500.00, 187500.00, 187500.00, 0
98, 187500.00, -118529.27, 187500.00, 187500.00, 187500.00, 187500.00, 187500.00, 187500.00, 0
99, 187500.00, -117977.66, 187500.00, 187500.00, 187500.00, 187500.00, 187500.00, 187500.00, 0
100, 187500.00, -118619.90, 187500.00, 187500.00, 187500.00, 187500.00, 187500.00, 187500.00, 0
101, 187500.00, -119494.08, 187500.00, 187500.00, 187500.00, 187500.00, 187500.00, 187500.00, 0
102, 187500.00, -118743.13, 187500.00, 187500.00, 187500.00, 187500.00, 187500.00, 187500.00, 0
103, 187500.00, -117996.95, 187500.00, 187500.00, 187500.00, 187500.00, 187500.00, 187500.00, 0
104, 187500.00, -118441.71, 187500.00, 187500.00, 187500.00, 187500.00, 187500.00, 187500.00, 0
105, 187500.00, -119416.45, 187500.00, 187500.00, 187500.00, 187500.00, 187500.00, 187500.00, 0
106, 187500.00, -118909.76, 187500.00, 187500.00, 187500.00, 187500.00, 187500.00, 187500.00, 0
107, 187500.00, -118002.16, 187500.00, 187500.00, 187500.00, 187500.00, 187500.00, 187500.00, 0
108, 187500.00, -118268.20, 187500.00, 187500.00, 187500.00, 187500.00, 187500.00, 187500.00, 0
109, 187500.00, -119304.42, 187500.00, 187500.00, 187500.00, 187500.00, 187500.00, 187500.00, 0
110, 187500.00, -119119.37, 187500.00, 187500.00, 187500.00, 187500.00, 187500.00, 187500.00, 0
111, 187500.00, -118102.63, 187500.00, 187500.00, 187500.00, 187500.00, 187500.00, 187500.00, 0
112, 187500.00, -118146.89, 187500.00, 187500.00, 187500.00, 187500.00, 187500.00, 187500.00, 0
113, 187500.00, -119151.87, 187500.00, 187500.00, 187500.00, 187500.00, 187500.00, 187500.00, 0
114, 187500.00, -119312.71, 187500.00, 187500.00, 187500.00, 187500.00, 187500.00, 187500.00, 0
115, 187500.00, -118242.83, 187500.00, 187500.00, 187500.00, 187500.00, 187500.00, 187500.00, 0
116, 187500.00, -118046.80, 187500.00, 187500.00, 187500.00, 187500.00, 187500.00, 187500.00, 0
117, 187500.00, -118957.05, 187500.00, 187500.00, 187500.00, 187500.00, 187500.00, 187500.00, 0
118, 187500.00, -119423.82, 187500.00, 187500.00, 187500.00, 187500.00, 187500.00, 187500.00, 0
119, 187500.00, -118398.17, 187500.00, 187500.00, 187500.00, 187500.00, 187500.00, 187500.00, 0
120, 187500.00, -118007.08, 187500.00, 187500.00, 187500.00, 187500.00, 187500.00, 187500.00, 0
121, 187500.00, -118754.21, 187500.00, 187500.00, 187500.00, 187500.00, 187500.00, 187500.00, 0
122, 187500.00, -119462.42, 187500.00, 187500.00, 187500.00, 187500.00, 187500.00, 187500.00, 0
123, 187500.00, -118577.95, 187500.00, 187500.00, 187500.00, 187500.00, 187500.00, 187500.00, 0
124, 187500.00, -117989.76, 187500.00, 187500.00, 187500.00, 187500.00, 187500.00, 187500.00, 0
125, 187500.00, -118566.43, 187500.00, 187500.00, 187500.00, 187500.00, 187500.00, 187500.00, 0
126, 187500.00, -119458.07, 187500.00, 187500.00, 187500.00, 187500.00, 187500.00, 187500.00, 0
127, 187500.00, -118765.34, 187500.00, 187500.00, 187500.00, 187500.00, 187500.00, 187500.00, 0
128, 187500.00, -117974.42, 187500.00, 187500.00, 187500.00, 187500.00, 187500.00, 187500.00, 0
129, 187500.00, -118372.73, 187500.00, 187500.00, 187500.00, 187500.00, 187500.00, 187500.00, 0
130, 187500.00, -119397.47, 187500.00, 187500.00, 187500.00, 187500.00, 187500.00, 187500.00, 0
131, 187500.00, -119009.60, 187500.00, 187500.00, 187500.00, 187500.00, 187500.00, 187500.00, 0
132, 187500.00, -118076.46, 187500.00, 187500.00, 187500.00, 187500.00, 187500.00, 187500.00, 0
133, 187500.00, -118253.15, 187500.00, 187500.00, 187500.00, 187500.00, 187500.00, 187500.00, 0
134, 187500.00, -119272.97, 187500.00, 187500.00, 187500.00, 187500.00, 187500.00, 187500.00, 0
135, 187500.00, -119187.88, 187500.00, 187500.00, 187500.00, 187500.00, 187500.00, 187500.00, 0
136, 187500.00, -118132.23, 187500.00, 187500.00, 187500.00, 187500.00, 187500.00, 187500.00, 0
137, 187500.00, -118122.35, 187500.00, 187500.00, 187500.00, 187500.00, 187500.00, 187500.00, 0
138, 187500.00, -119114.99, 187500.00, 187500.00, 187500.00, 187500.00, 187500.00, 187500.00, 0
139, 187500.00, -119352.41, 187500.00, 187500.00, 187500.00, 187500.00, 187500.00, 187500.00, 0
140, 187500.00, -118291.80, 187500.00, 187500.00, 187500.00, 187500.00, 187500.00, 187500.00, 0
141, 187500.00, -118049.57, 187500.00, 187500.00, 187500.00, 187500.00, 187500.00, 187500.00, 0
142, 187500.00, -118911.81, 187500.00, 187500.00, 187500.00, 187500.00, 187500.00, 187500.00, 0
143, 187500.00, -119442.73, 187500.00, 187500.00, 187500.00, 187500.00, 187500.00, 187500.00, 0
144, 187500.00, -118472.65, 187500.00, 187500.00, 187500.00, 187500.00, 187500.00, 187500.00, 0
145, 187500.00, -118029.55, 187500.00, 187500.00, 187500.00, 187500.00, 187500.00, 187500.00, 0
146, 187500.00, -118723.45, 187500.00, 187500.00, 187500.00, 187500.00, 187500.00, 187500.00, 0
147, 187500.00, -119495.41, 187500.00, 187500.00, 187500.00, 187500.00, 187500.00, 187500.00, 0
148, 187500.00, -118657.96, 187500.00, 187500.00, 187500.00, 187500.00, 187500.00, 187500.00, 0
149, 187500.00, -117989.18, 187500.00, 187500.00, 187500.00, 187500.00, 187500.00, 187500.00, 0
150, 187500.00, -118495.04, 187500.00, 187500.00, 187500.00, 187500.00, 187500.00, 187500.00, 0
151, 187500.00, -119454.67, 187500.00, 187500.00, 187500.00, 187500.00, 187500.00, 187500.00, 0
152, 187500.00, -118866.33, 187500.00, 187500.00, 187500.00, 187500.00, 187500.00, 187500.00, 0
153, 187500.00, -118026.33, 187500.00, 187500.00, 187500.00, 187500.00, 187500.00, 187500.00, 0
154, 187500.00, -118351.14, 187500.00, 187500.00, 187500.00, 187500.00, 187500.00, 187500.00, 0
155, 187500.00, -119341.23, 187500.00, 187500.00, 187500.00, 187500.00, 187500.00, 187500.00, 0
156, 187500.00, -119043.40, 187500.00, 187500.00, 187500.00, 187500.00, 187500.00, 187500.00, 0
157, 187500.00, -118097.54, 187500.00, 187500.00, 187500.00, 187500.00, 187500.00, 187500.00, 0
158, 187500.00, -118198.66, 187500.00, 187500.00, 187500.00, 187500.00, 187500.00, 187500.00, 0
159, 187500.00, -119204.77, 187500.00, 187500.00, 187500.00, 187500.00, 187500.00, 187500.00, 0
160, 187500.00, -119231.38, 187500.00, 187500.00, 187500.00, 187500.00, 187500.00, 187500.00, 0
161, 187500.00, -118183.98, 187500.00, 187500.00, 187500.00, 187500.00, 187500.00, 187500.00, 0
162, 187500.00, -118093.70, 187500.00, 187500.00, 187500.00, 187500.00, 187500.00, 187500.00, 0
163, 187500.00, -119027.48, 187500.00, 187500.00, 187500.00, 187500.00, 187500.00, 187500.00, 0
164, 187500.00, -119388.73, 187500.00, 187500.00, 187500.00, 187500.00, 187500.00, 187500.00, 0
165, 187500.00, -118341.35, 187500.00, 187500.00, 187500.00, 187500.00, 187500.00, 187500.00, 0
166, 187500.00, -118021.70, 187500.00, 187500.00, 187500.00, 187500.00, 187500.00, 187500.00, 0
167, 187500.00, -118847.48, 187500.00, 187500.00, 187500.00, 187500.00, 187500.00, 187500.00, 0
168, 187500.00, -119475.86, 187500.00, 187500.00, 187500.00, 187500.00, 187500.00, 187500.00, 0
169, 187500.00, -118527.14, 187500.00, 187500.00, 187500.00, 187500.00, 187500.00, 187500.00, 0
170, 187500.00, -118005.52, 187500.00, 187500.00, 187500.00, 187500.00, 187500.00, 187500.00, 0
171, 187500.00, -118651.57, 187500.00, 187500.00, 187500.00, 187500.00, 187500.00, 187500.00, 0
172, 187500.00, -119484.33, 187500.00, 187500.00, 187500.00, 187500.00, 187500.00, 187500.00, 0
173, 187500.00, -118704.23, 187500.00, 187500.00, 187500.00, 187500.00, 187500.00, 187500.00, 0
174, 187500.00, -117976.86, 187500.00, 187500.00, 187500.00, 187500.00, 187500.00, 187500.00, 0
175, 187500.00, -118440.88, 187500.00, 187500.00, 187500.00, 187500.00, 187500.00, 187500.00, 0
176, 187500.00, -119438.71, 187500.00, 187500.00, 187500.00, 187500.00, 187500.00, 187500.00, 0
177, 187500.00, -118929.70, 187500.00, 187500.00, 187500.00, 187500.00, 187500.00, 187500.00, 0
178, 187500.00, -118043.34, 187500.00, 187500.00, 187500.00, 187500.00, 187500.00, 187500.00, 0
179, 187500.00, -118307.76, 187500.00, 187500.00, 187500.00, 187500.00, 187500.00, 187500.00, 0
180, 187500.00, -119318.86, 187500.00, 187500.00, 187500.00, 187500.00, 187500.00, 187500.00, 0
181, 187500.00, -119104.66, 187500.00, 187500.00, 187500.00, 187500.00, 187500.00, 187500.00, 0
182, 187500.00, -118107.20, 187500.00, 187500.00, 187500.00, 187500.00, 187500.00, 187500.00, 0
183, 187500.00, -118174.12, 187500.00, 187500.00, 187500.00, 187500.00, 187500.00, 187500.00, 0
184, 187500.00, -119167.98, 187500.00, 187500.00, 187500.00, 187500.00, 187500.00, 187500.00, 0
185, 187500.00, -119263.45, 187500.00, 187500.00, 187500.00, 187500.00, 187500.00, 187500.00, 0
186, 187500.00, -118208.78, 187500.00, 187500.00, 187500.00, 187500.00, 187500.00, 187500.00, 0
187, 187500.00, -118065.62, 187500.00, 187500.00, 187500.00, 187500.00, 187500.00, 187500.00, 0
188, 187500.00, -118978.98, 187500.00, 187500.00, 187500.00, 187500.00, 187500.00, 187500.00, 0
189, 187500.00, -119397.59, 187500.00, 187500.00, 187500.00, 187500.00, 187500.00, 187500.00, 0
190, 187500.00, -118376.00, 187500.00, 187500.00, 187500.00, 187500.00, 187500.00, 187500.00, 0
191, 187500.00, -118002.88, 187500.00, 187500.00, 187500.00, 187500.00, 187500.00, 187500.00, 0
192, 187500.00, -118768.72, 187500.00, 187500.00, 187500.00, 187500.00, 187500.00, 187500.00, 0
193, 187500.00, -119459.99, 187500.00, 187500.00, 187500.00, 187500.00, 187500.00, 187500.00, 0
194, 187500.00, -118544.95, 187500.00, 187500.00, 187500.00, 187500.00, 187500.00, 187500.00, 0
195, 187500.00, -117960.57, 187500.00, 187500.00, 187500.00, 187500.00, 187500.00, 187500.00, 0
196, 187500.00, -118566.03, 187500.00, 187500.00, 187500.00, 187500.00, 187500.00, 187500.00, 0
197, 187500.00, -119457.53, 187500.00, 187500.00, 187500.00, 187500.00, 187500.00, 187500.00, 0
198, 187500.00, -118755.09, 187500.00, 187500.00, 187500.00, 187500.00, 187500.00, 187500.00, 0
199, 187500.00, -117990.81, 187500.00, 187500.00, 187500.00, 187500.00, 187500.00, 187500.00, 0
200, 187500.00, -118399.13, 187500.00, 187500.00, 187500.00, 187500.00, 187500.00, 187500.00, 0
201, 187500.00, -119392.15, 187500.00, 187500.00, 187500.00, 187500.00, 187500.00, 187500.00, 0
202, 187500.00, -118959.84, 187500.00, 187500.00, 187500.00, 187500.00, 187500.00, 187500.00, 0
203, 187500.00, -118035.87, 187500.00, 187500.00, 187500.00, 187500.00, 187500.00, 187500.00, 0
204, 187500.00, -118248.30, 187500.00, 187500.00, 187500.00, 187500.00, 187500.00, 187500.00, 0
205, 187500.00, -119273.48, 187500.00, 187500.00, 187500.00, 187500.00, 187500.00, 187500.00, 0
206, 187500.00, -119165.02, 187500.00, 187500.00, 187500.00, 187500.00, 187500.00, 187500.00, 0
207, 187500.00, -118146.04, 187500.00, 187500.00, 187500.00, 187500.00, 187500.00, 187500.00, 0
208, 187500.00, -118143.94, 187500.00, 187500.00, 187500.00, 187500.00, 187500.00, 187500.00, 0
209, 187500.00, -119123.23, 187500.00, 187500.00, 187500.00, 187500.00, 187500.00, 187500.00, 0
210, 187500.00, -119333.95, 187500.00, 187500.00, 187500.00, 187500.00, 187500.00, 187500.00, 0
211, 187500.00, -118285.23, 187500.00, 187500.00, 187500.00, 187500.00, 187500.00, 187500.00, 0
212, 187500.00, -118066.76, 187500.00, 187500.00, 187500.00, 187500.00, 187500.00, 187500.00, 0
213, 187500.00, -118924.22, 187500.00, 187500.00, 187500.00, 187500.00, 187500.00, 187500.00, 0
214, 187500.00, -119437.84, 187500.00, 187500.00, 187500.00, 187500.00, 187500.00, 187500.00, 0
215, 187500.00, -118410.28, 187500.00, 187500.00, 187500.00, 187500.00, 187500.00, 187500.00, 0
216, 187500.00, -117969.22, 187500.00, 187500.00, 187500.00, 187500.00, 187500.00, 187500.00, 0
217, 187500.00, -118771.04, 187500.00, 187500.00, 187500.00, 187500.00, 187500.00, 187500.00, 0
218, 187500.00, -119535.47, 187500.00, 187500.00, 187500.00, 187500.00, 187500.00, 187500.00, 0
219, 187500.00, -118667.77, 187500.00, 187500.00, 187500.00, 187500.00, 187500.00, 187500.00, 0
220, 187500.00, -118027.53, 187500.00, 187500.00, 187500.00, 187500.00, 187500.00, 187500.00, 0
221, 187500.00, -118571.06, 187500.00, 187500.00, 187500.00, 187500.00, 187500.00, 187500.00, 0
222, 187500.00, -119492.78, 187500.00, 187500.00, 187500.00, 187500.00, 187500.00, 187500.00, 0
223, 187500.00, -118854.55, 187500.00, 187500.00, 187500.00, 187500.00, 187500.00, 187500.00, 0
224, 187500.00, -118028.54, 187500.00, 187500.00, 187500.00, 187500.00, 187500.00, 187500.00, 0
225, 187500.00, -118373.85, 187500.00, 187500.00, 187500.00, 187500.00, 187500.00, 187500.00, 0
226, 187500.00, -119384.91, 187500.00, 187500.00, 187500.00, 187500.00, 187500.00, 187500.00, 0
227, 187500.00, -119045.55, 187500.00, 187500.00, 187500.00, 187500.00, 187500.00, 187500.00, 0
228, 187500.00, -118065.28, 187500.00, 187500.00, 187500.00, 187500.00, 187500.00, 187500.00, 0
229, 187500.00, -118202.70, 187500.00, 187500.00, 187500.00, 187500.00, 187500.00, 187500.00, 0
230, 187500.00, -119247.70, 187500.00, 187500.00, 187500.00, 187500.00, 187500.00, 187500.00, 0
231, 187500.00, -119229.01, 187500.00, 187500.00, 187500.00, 187500.00, 187500.00, 187500.00, 0
232, 187500.00, -118168.05, 187500.00, 187500.00, 187500.00, 187500.00, 187500.00, 187500.00, 0
233, 187500.00, -118101.67, 187500.00, 187500.00, 187500.00, 187500.00, 187500.00, 187500.00, 0
234, 187500.00, -119043.09, 187500.00, 187500.00, 187500.00, 187500.00, 187500.00, 187500.00, 0
235, 187500.00, -119360.52, 187500.00, 187500.00, 187500.00, 187500.00, 187500.00, 187500.00, 0
236, 187500.00, -118343.50, 187500.00, 187500.00, 187500.00, 187500.00, 187500.00, 187500.00, 0
237, 187500.00, -118066.20, 187500.00, 187500.00, 187500.00, 187500.00, 187500.00, 187500.00, 0
238, 187500.00, -118899.48, 187500.00, 187500.00, 187500.00, 187500.00, 187500.00, 187500.00, 0
239, 187500.00, -119483.15, 187500.00, 187500.00, 187500.00, 187500.00, 187500.00, 187500.00, 0
240, 187500.00, -118521.95, 187500.00, 187500.00, 187500.00, 187500.00, 187500.00, 187500.00, 0
241, 187500.00, -118019.64, 187500.00, 187500.00, 187500.00, 187500.00, 187500.00, 187500.00, 0
242, 187500.00, -118682.53, 187500.00, 187500.00, 187500.00, 187500.00, 187500.00, 187500.00, 0
243, 187500.00, -119490.70, 187500.00, 187500.00, 187500.00, 187500.00, 187500.00, 187500.00, 0
244, 187500.00, -118689.77, 187500.00, 187500.00, 187500.00, 187500.00, 187500.00, 187500.00, 0
245, 187500.00, -117990.74, 187500.00, 187500.00, 187500.00, 187500.00, 187500.00, 187500.00, 0
246, 187500.00, -118477.52, 187500.00, 187500.00, 187500.00, 187500.00, 187500.00, 187500.00, 0
247, 187500.00, -119440.97, 187500.00, 187500.00, 187500.00, 187500.00, 187500.00, 187500.00, 0
248, 187500.00, -118901.04, 187500.00, 187500.00, 187500.00, 187500.00, 187500.00, 187500.00, 0
249, 187500.00, -118042.22, 187500.00, 187500.00, 187500.00, 187500.00, 187500.00, 187500.00, 0
250, 187500.00, -118334.47, 187500.00, 187500.00, 187500.00, 187500.00, 187500.00, 187500.00, 0
251, 187500.00, -119357.59, 187500.00, 187500.00, 187500.00, 187500.00, 187500.00, 187500.00, 0
252, 187500.00, -119116.73, 187500.00, 187500.00, 187500.00, 187500.00, 187500.00, 187500.00, 0
253, 187500.00, -118126.64, 187500.00, 187500.00, 187500.00, 187500.00, 187500.00, 187500.00, 0
254, 187500.00, -118208.91, 187500.00, 187500.00, 187500.00, 187500.00, 187500.00, 187500.00, 0
255, 187500.00, -119216.87, 187500.00, 187500.00, 187500.00, 187500.00, 187500.00, 187500.00, 0
0, 187500.00, -119299.34, 187500.00, 187500.00, 187500.00, 187500.00, 187500.00, 187500.00, 0
1, 187500.00, -118238.89, 187500.00, 187500.00, 187500.00, 187500.00, 187500.00, 187500.00, 0
2, 187500.00, -118102.52, 187500.00, 187500.00, 187500.00, 187500.00, 187500.00, 187500.00, 0
3, 187500.00, -119020.22, 187500.00, 187500.00, 187500.00, 187500.00, 187500.00, 187500.00, 0
4, 187500.00, -119414.91, 187500.00, 187500.00, 187500.00, 187500.00, 187500.00, 187500.00, 0
5, 187500.00, -118409.44, 187500.00, 187500.00, 187500.00, 187500.00, 187500.00, 187500.00, 0
6, 187500.00, -118064.15, 187500.00, 187500.00, 187500.00, 187500.00, 187500.00, 187500.00, 0
7, 187500.00, -118848.85, 187500.00, 187500.00, 187500.00, 187500.00, 187500.00, 187500.00, 0
8, 187500.00, -119509.74, 187500.00, 187500.00, 187500.00, 187500.00, 187500.00, 187500.00, 0
9, 187500.00, -118578.10, 187500.00, 187500.00, 187500.00, 187500.00, 187500.00, 187500.00, 0
10, 187500.00, -118024.88, 187500.00, 187500.00, 187500.00, 187500.00, 187500.00, 187500.00, 0
11, 187500.00, -118642.23, 187500.00, 187500.00, 187500.00, 187500.00, 187500.00, 187500.00, 0
12, 187500.00, -119507.94, 187500.00, 187500.00, 187500.00, 187500.00, 187500.00, 187500.00, 0
13, 187500.00, -118780.23, 187500.00, 187500.00, 187500.00, 187500.00, 187500.00, 187500.00, 0
14, 187500.00, -118028.23, 187500.00, 187500.00, 187500.00, 187500.00, 187500.00, 187500.00, 0
15, 187500.00, -118452.04, 187500.00, 187500.00, 187500.00, 187500.00, 187500.00, 187500.00, 0
16, 187500.00, -119427.38, 187500.00, 187500.00, 187500.00, 187500.00, 187500.00, 187500.00, 0
17, 187500.00, -118952.05, 187500.00, 187500.00, 187500.00, 187500.00, 187500.00, 187500.00, 0
18, 187500.00, -118047.94, 187500.00, 187500.00, 187500.00, 187500.00, 187500.00, 187500.00, 0
19, 187500.00, -118266.92, 187500.00, 187500.00, 187500.00, 187500.00, 187500.00, 187500.00, 0
20, 187500.00, -119236.18, 187500.00, 187500.00, 187500.00, 187500.00, 187500.00, 187500.00, 0
21, 187500.00, -119082.27, 187500.00, 187500.00, 187500.00, 187500.00, 187500.00, 187500.00, 0
22, 187500.00, -118197.79, 187500.00, 187500.00, 187500.00, 187500.00, 187500.00, 187500.00, 0
23, 187500.00, -118241.87, 187500.00, 187500.00, 187500.00, 187500.00, 187500.00, 187500.00, 0
24, 187500.00, -119213.88, 187500.00, 187500.00, 187500.00, 187500.00, 187500.00, 187500.00, 0
25, 187500.00, -119376.20, 187500.00, 187500.00, 187500.00, 187500.00, 187500.00, 187500.00, 0
26, 187500.00, -118302.91, 187500.00, 187500.00, 187500.00, 187500.00, 187500.00, 187500.00, 0
27, 187500.00, -118092.29, 187500.00, 187500.00, 187500.00, 187500.00, 187500.00, 187500.00, 0
28, 187500.00, -118972.03, 187500.00, 187500.00, 187500.00, 187500.00, 187500.00, 187500.00, 0
29, 187500.00, -119448.55, 187500.00, 187500.00, 187500.00, 187500.00, 187500.00, 187500.00, 0
30, 187500.00, -118434.23, 187500.00, 187500.00, 187500.00, 187500.00, 187500.00, 187500.00, 0
31, 187500.00, -118023.89, 187500.00, 187500.00, 187500.00, 187500.00, 187500.00, 187500.00, 0
32, 187500.00, -118768.49, 187500.00, 187500.00, 187500.00, 187500.00, 187500.00, 187500.00, 0
33, 187500.00, -119503.40, 187500.00, 187500.00, 187500.00, 187500.00, 187500.00, 187500.00, 0
34, 187500.00, -118626.70, 187500.00, 187500.00, 187500.00, 187500.00, 187500.00, 187500.00, 0
35, 187500.00, -118007.80, 187500.00, 187500.00, 187500.00, 187500.00, 187500.00, 187500.00, 0
36, 187500.00, -118572.60, 187500.00, 187500.00, 187500.00, 187500.00, 187500.00, 187500.00, 0
37, 187500.00, -119487.30, 187500.00, 187500.00, 187500.00, 187500.00, 187500.00, 187500.00, 0
38, 187500.00, -118827.73, 187500.00, 187500.00, 187500.00, 187500.00, 187500.00, 187500.00, 0
39, 187500.00, -118011.28, 187500.00, 187500.00, 187500.00, 187500.00, 187500.00, 187500.00, 0
40, 187500.00, -118377.43, 187500.00, 187500.00, 187500.00, 187500.00, 187500.00, 187500.00, 0
41, 187500.00, -119396.91, 187500.00, 187500.00, 187500.00, 187500.00, 187500.00, 187500.00, 0
42, 187500.00, -119032.98, 187500.00, 187500.00, 187500.00, 187500.00, 187500.00, 187500.00, 0
43, 187500.00, -118059.09, 187500.00, 187500.00, 187500.00, 187500.00, 187500.00, 187500.00, 0
44, 187500.00, -118221.08, 187500.00, 187500.00, 187500.00, 187500.00, 187500.00, 187500.00, 0
45, 187500.00, -119261.38, 187500.00, 187500.00, 187500.00, 187500.00, 187500.00, 187500.00, 0
46, 187500.00, -119235.71, 187500.00, 187500.00, 187500.00, 187500.00, 187500.00, 187500.00, 0
47, 187500.00, -118204.36, 187500.00, 187500.00, 187500.00, 187500.00, 187500.00, 187500.00, 0
48, 187500.00, -118144.08, 187500.00, 187500.00, 187500.00, 187500.00, 187500.00, 187500.00, 0
49, 187500.00, -119093.78, 187500.00, 187500.00, 187500.00, 187500.00, 187500.00, 187500.00, 0
50, 187500.00, -119396.11, 187500.00, 187500.00, 187500.00, 187500.00, 187500.00, 187500.00, 0
51, 187500.00, -118365.47, 187500.00, 187500.00, 187500.00, 187500.00, 187500.00, 187500.00, 0
52, 187500.00, -118066.88, 187500.00, 187500.00, 187500.00, 187500.00, 187500.00, 187500.00, 0
53, 187500.00, -118870.93, 187500.00, 187500.00, 187500.00, 187500.00, 187500.00, 187500.00, 0
54, 187500.00, -119487.86, 187500.00, 187500.00, 187500.00, 187500.00, 187500.00, 187500.00, 0
55, 187500.00, -118551.10, 187500.00, 187500.00, 187500.00, 187500.00, 187500.00, 187500.00, 0
56, 187500.00, -118053.17, 187500.00, 187500.00, 187500.00, 187500.00, 187500.00, 187500.00, 0
57, 187500.00, -118722.43, 187500.00, 187500.00, 187500.00, 187500.00, 187500.00, 187500.00, 0
58, 187500.00, -119522.13, 187500.00, 187500.00, 187500.00, 187500.00, 187500.00, 187500.00, 0
59, 187500.00, -118718.18, 187500.00, 187500.00, 187500.00, 187500.00, 187500.00, 187500.00, 0
60, 187500.00, -118037.34, 187500.00, 187500.00, 187500.00, 187500.00, 187500.00, 187500.00, 0
61, 187500.00, -118529.91, 187500.00, 187500.00, 187500.00, 187500.00, 187500.00, 187500.00, 0
62, 187500.00, -119463.59, 187500.00, 187500.00, 187500.00, 187500.00, 187500.00, 187500.00, 0
63, 187500.00, -118874.22, 187500.00, 187500.00, 187500.00, 187500.00, 187500.00, 187500.00, 0
64, 187500.00, -118020.72, 187500.00, 187500.00, 187500.00, 187500.00, 187500.00, 187500.00, 0
65, 187500.00, -118347.05, 187500.00, 187500.00, 187500.00, 187500.00, 187500.00, 187500.00, 0
66, 187500.00, -119369.06, 187500.00, 187500.00, 187500.00, 187500.00, 187500.00, 187500.00, 0
67, 187500.00, -119094.02, 187500.00, 187500.00, 187500.00, 187500.00, 187500.00, 187500.00, 0
68, 187500.00, -118101.00, 187500.00, 187500.00, 187500.00, 187500.00, 187500.00, 187500.00, 0
69, 187500.00, -118188.33, 187500.00, 187500.00, 187500.00, 187500.00, 187500.00, 187500.00, 0
70, 187500.00, -119191.21, 187500.00, 187500.00, 187500.00, 187500.00, 187500.00, 187500.00, 0
71, 187500.00, -119254.73, 187500.00, 187500.00, 187500.00, 187500.00, 187500.00, 187500.00, 0
72, 187500.00, -118237.41, 187500.00, 187500.00, 187500.00, 187500.00, 187500.00, 187500.00, 0
73, 187500.00, -118119.00, 187500.00, 187500.00, 187500.00, 187500.00, 187500.00, 187500.00, 0
74, 187500.00, -119043.22, 187500.00, 187500.00, 187500.00, 187500.00, 187500.00, 187500.00, 0
75, 187500.00, -119392.69, 187500.00, 187500.00, 187500.00, 187500.00, 187500.00, 187500.00, 0
76, 187500.00, -118344.08, 187500.00, 187500.00, 187500.00, 187500.00, 187500.00, 187500.00, 0
77, 187500.00, -118057.88, 187500.00, 187500.00, 187500.00, 187500.00, 187500.00, 187500.00, 0
78, 187500.00, -118887.72, 187500.00, 187500.00, 187500.00, 187500.00, 187500.00, 187500.00, 0
79, 187500.00, -119500.94, 187500.00, 187500.00, 187500.00, 187500.00, 187500.00, 187500.00, 0
80, 187500.00, -118536.93, 187500.00, 187500.00, 187500.00, 187500.00, 187500.00, 187500.00, 0
81, 187500.00, -118007.98, 187500.00, 187500.00, 187500.00, 187500.00, 187500.00, 187500.00, 0
82, 187500.00, -118683.53, 187500.00, 187500.00, 187500.00, 187500.00, 187500.00, 187500.00, 0
83, 187500.00, -119515.55, 187500.00, 187500.00, 187500.00, 187500.00, 187500.00, 187500.00, 0
84, 187500.00, -118734.23, 187500.00, 187500.00, 187500.00, 187500.00, 187500.00, 187500.00, 0
85, 187500.00, -118009.59, 187500.00, 187500.00, 187500.00, 187500.00, 187500.00, 187500.00, 0
86, 187500.00, -118496.07, 187500.00, 187500.00, 187500.00, 187500.00, 187500.00, 187500.00, 0
87, 187500.00, -119469.42, 187500.00, 187500.00, 187500.00, 187500.00, 187500.00, 187500.00, 0
88, 187500.00, -118960.95, 187500.00, 187500.00, 187500.00, 187500.00, 187500.00, 187500.00, 0
89, 187500.00, -118054.89, 187500.00, 187500.00, 187500.00, 187500.00, 187500.00, 187500.00, 0
90, 187500.00, -118315.09, 187500.00, 187500.00, 187500.00, 187500.00, 187500.00, 187500.00, 0
91, 187500.00, -119329.01, 187500.00, 187500.00, 187500.00, 187500.00, 187500.00, 187500.00, 0
92, 187500.00, -119159.23, 187500.00, 187500.00, 187500.00, 187500.00, 187500.00, 187500.00, 0
93, 187500.00, -118151.18, 187500.00, 187500.00, 187500.00, 187500.00, 187500.00, 187500.00, 0
94, 187500.00, -118171.01, 187500.00, 187500.00, 187500.00, 187500.00, 187500.00, 187500.00, 0
95, 187500.00, -119164.16, 187500.00, 187500.00, 187500.00, 187500.00, 187500.00, 187500.00, 0
96, 187500.00, -119336.54, 187500.00, 187500.00, 187500.00, 187500.00, 187500.00, 187500.00, 0
97, 187500.00, -118276.24, 187500.00, 187500.00, 187500.00, 187500.00, 187500.00, 187500.00, 0
98, 187500.00, -118094.90, 187500.00, 187500.00, 187500.00, 187500.00, 187500.00, 187500.00, 0
99, 187500.00, -118969.62, 187500.00, 187500.00, 187500.00, 187500.00, 187500.00, 187500.00, 0
100, 187500.00, -119425.73, 187500.00, 187500.00, 187500.00, 187500.00, 187500.00, 187500.00, 0
101, 187500.00, -118427.00, 187500.00, 187500.00, 187500.00, 187500.00, 187500.00, 187500.00, 0
102, 187500.00, -118033.91, 187500.00, 187500.00, 187500.00, 187500.00, 187500.00, 187500.00, 0
103, 187500.00, -118786.58, 187500.00, 187500.00, 187500.00, 187500.00, 187500.00, 187500.00, 0
104, 187500.00, -119494.37, 187500.00, 187500.00, 187500.00, 187500.00, 187500.00, 187500.00, 0
105, 187500.00, -118606.42, 187500.00, 187500.00, 187500.00, 187500.00, 187500.00, 187500.00, 0
106, 187500.00, -118008.67, 187500.00, 187500.00, 187500.00, 187500.00, 187500.00, 187500.00, 0
107, 187500.00, -118577.09, 187500.00, 187500.00, 187500.00, 187500.00, 187500.00, 187500.00, 0
108, 187500.00, -119466.09, 187500.00, 187500.00, 187500.00, 187500.00, 187500.00, 187500.00, 0
109, 187500.00, -118820.39, 187500.00, 187500.00, 187500.00, 187500.00, 187500.00, 187500.00, 0
110, 187500.00, -118043.23, 187500.00, 187500.00, 187500.00, 187500.00, 187500.00, 187500.00, 0
111, 187500.00, -118415.60, 187500.00, 187500.00, 187500.00, 187500.00, 187500.00, 187500.00, 0
112, 187500.00, -119404.53, 187500.00, 187500.00, 187500.00, 187500.00, 187500.00, 187500.00, 0
113, 187500.00, -119010.79, 187500.00, 187500.00, 187500.00, 187500.00, 187500.00, 187500.00, 0
114, 187500.00, -118068.17, 187500.00, 187500.00, 187500.00, 187500.00, 187500.00, 187500.00, 0
115, 187500.00, -118235.29, 187500.00, 187500.00, 187500.00, 187500.00, 187500.00, 187500.00, 0
116, 187500.00, -119230.13, 187500.00, 187500.00, 187500.00, 187500.00, 187500.00, 187500.00, 0
117, 187500.00, -119166.45, 187500.00, 187500.00, 187500.00, 187500.00, 187500.00, 187500.00, 0
118, 187500.00, -118190.09, 187500.00, 187500.00, 187500.00, 187500.00, 187500.00, 187500.00, 0
119, 187500.00, -118155.88, 187500.00, 187500.00, 187500.00, 187500.00, 187500.00, 187500.00, 0
120, 187500.00, -119105.16, 187500.00, 187500.00, 187500.00, 187500.00, 187500.00, 187500.00, 0
121, 187500.00, -119379.32, 187500.00, 187500.00, 187500.00, 187500.00, 187500.00, 187500.00, 0
122, 187500.00, -118331.94, 187500.00, 187500.00, 187500.00, 187500.00, 187500.00, 187500.00, 0
123, 187500.00, -118068.70, 187500.00, 187500.00, 187500.00, 187500.00, 187500.00, 187500.00, 0
124, 187500.00, -118895.97, 187500.00, 187500.00, 187500.00, 187500.00, 187500.00, 187500.00, 0
125, 187500.00, -119452.39, 187500.00, 187500.00, 187500.00, 187500.00, 187500.00, 187500.00, 0
126, 187500.00, -118488.27, 187500.00, 187500.00, 187500.00, 187500.00, 187500.00, 187500.00, 0
127, 187500.00, -118025.09, 187500.00, 187500.00, 187500.00, 187500.00, 187500.00, 187500.00, 0
128, 187500.00, -118712.01, 187500.00, 187500.00, 187500.00, 187500.00, 187500.00, 187500.00, 0
129, 187500.00, -119479.77, 187500.00, 187500.00, 187500.00, 187500.00, 187500.00, 187500.00, 0
130, 187500.00, -118656.84, 187500.00, 187500.00, 187500.00, 187500.00, 187500.00, 187500.00, 0
131, 187500.00, -117986.74, 187500.00, 187500.00, 187500.00, 187500.00, 187500.00, 187500.00, 0
132, 187500.00, -118514.09, 187500.00, 187500.00, 187500.00, 187500.00, 187500.00, 187500.00, 0
133, 187500.00, -119456.50, 187500.00, 187500.00, 187500.00, 187500.00, 187500.00, 187500.00, 0
134, 187500.00, -118851.17, 187500.00, 187500.00, 187500.00, 187500.00, 187500.00, 187500.00, 0
135, 187500.00, -118018.52, 187500.00, 187500.00, 187500.00, 187500.00, 187500.00, 187500.00, 0
136, 187500.00, -118340.08, 187500.00, 187500.00, 187500.00, 187500.00, 187500.00, 187500.00, 0
137, 187500.00, -119343.89, 187500.00, 187500.00, 187500.00, 187500.00, 187500.00, 187500.00, 0
138, 187500.00, -119045.92, 187500.00, 187500.00, 187500.00, 187500.00, 187500.00, 187500.00, 0
139, 187500.00, -118081.71, 187500.00, 187500.00, 187500.00, 187500.00, 187500.00, 187500.00, 0
140, 187500.00, -118200.67, 187500.00, 187500.00, 187500.00, 187500.00, 187500.00, 187500.00, 0
141, 187500.00, -119195.57, 187500.00, 187500.00, 187500.00, 187500.00, 187500.00, 187500.00, 0
142, 187500.00, -119218.77, 187500.00, 187500.00, 187500.00, 187500.00, 187500.00, 187500.00, 0
143, 187500.00, -118189.45, 187500.00, 187500.00, 187500.00, 187500.00, 187500.00, 187500.00, 0
144, 187500.00, -118097.90, 187500.00, 187500.00, 187500.00, 187500.00, 187500.00, 187500.00, 0
145, 187500.00, -119020.15, 187500.00, 187500.00, 187500.00, 187500.00, 187500.00, 187500.00, 0
146, 187500.00, -119350.33, 187500.00, 187500.00, 187500.00, 187500.00, 187500.00, 187500.00, 0
147, 187500.00, -118305.52, 187500.00, 187500.00, 187500.00, 187500.00, 187500.00, 187500.00, 0
148, 187500.00, -117995.16, 187500.00, 187500.00, 187500.00, 187500.00, 187500.00, 187500.00, 0
149, 187500.00, -118822.72, 187500.00, 187500.00, 187500.00, 187500.00, 187500.00, 187500.00, 0
150, 187500.00, -119445.64, 187500.00, 187500.00, 187500.00, 187500.00, 187500.00, 187500.00, 0
151, 187500.00, -118505.86, 187500.00, 187500.00, 187500.00, 187500.00, 187500.00, 187500.00, 0
152, 187500.00, -118001.31, 187500.00, 187500.00, 187500.00, 187500.00, 187500.00, 187500.00, 0
153, 187500.00, -118590.44, 187500.00, 187500.00, 187500.00, 187500.00, 187500.00, 187500.00, 0
154, 187500.00, -119441.05, 187500.00, 187500.00, 187500.00, 187500.00, 187500.00, 187500.00, 0
155, 187500.00, -118744.84, 187500.00, 187500.00, 187500.00, 187500.00, 187500.00, 187500.00, 0
156, 187500.00, -118038.87, 187500.00, 187500.00, 187500.00, 187500.00, 187500.00, 187500.00, 0
157, 187500.00, -118492.59, 187500.00, 187500.00, 187500.00, 187500.00, 187500.00, 187500.00, 0
158, 187500.00, -119445.17, 187500.00, 187500.00, 187500.00, 187500.00, 187500.00, 187500.00, 0
159, 187500.00, -118932.22, 187500.00, 187500.00, 187500.00, 187500.00, 187500.00, 187500.00, 0
160, 187500.00, -118052.57, 187500.00, 187500.00, 187500.00, 187500.00, 187500.00, 187500.00, 0
161, 187500.00, -118304.47, 187500.00, 187500.00, 187500.00, 187500.00, 187500.00, 187500.00, 0
162, 187500.00, -119309.23, 187500.00, 187500.00, 187500.00, 187500.00, 187500.00, 187500.00, 0
163, 187500.00, -119095.73, 187500.00, 187500.00, 187500.00, 187500.00, 187500.00, 187500.00, 0
164, 187500.00, -118088.20, 187500.00, 187500.00, 187500.00, 187500.00, 187500.00, 187500.00, 0
165, 187500.00, -118139.07, 187500.00, 187500.00, 187500.00, 187500.00, 187500.00, 187500.00, 0
166, 187500.00, -119097.80, 187500.00, 187500.00, 187500.00, 187500.00, 187500.00, 187500.00, 0
167, 187500.00, -119211.23, 187500.00, 187500.00, 187500.00, 187500.00, 187500.00, 187500.00, 0
168, 187500.00, -118240.39, 187500.00, 187500.00, 187500.00, 187500.00, 187500.00, 187500.00, 0
169, 187500.00, -118119.38, 187500.00, 187500.00, 187500.00, 187500.00, 187500.00, 187500.00, 0
170, 187500.00, -118970.35, 187500.00, 187500.00, 187500.00, 187500.00, 187500.00, 187500.00, 0
171, 187500.00, -119365.89, 187500.00, 187500.00, 187500.00, 187500.00, 187500.00, 187500.00, 0
172, 187500.00, -118402.80, 187500.00, 187500.00, 187500.00, 187500.00, 187500.00, 187500.00, 0
173, 187500.00, -118045.86, 187500.00, 187500.00, 187500.00, 187500.00, 187500.00, 187500.00, 0
174, 187500.00, -118776.70, 187500.00, 187500.00, 187500.00, 187500.00, 187500.00, 187500.00, 0
175, 187500.00, -119441.48, 187500.00, 187500.00, 187500.00, 187500.00, 187500.00, 187500.00, 0
176, 187500.00, -118552.91, 187500.00, 187500.00, 187500.00, 187500.00, 187500.00, 187500.00, 0
177, 187500.00, -117984.82, 187500.00, 187500.00, 187500.00, 187500.00, 187500.00, 187500.00, 0
178, 187500.00, -118579.95, 187500.00, 187500.00, 187500.00, 187500.00, 187500.00, 187500.00, 0
179, 187500.00, -119452.99, 187500.00, 187500.00, 187500.00, 187500.00, 187500.00, 187500.00, 0
180, 187500.00, -118751.41, 187500.00, 187500.00, 187500.00, 187500.00, 187500.00, 187500.00, 0
181, 187500.00, -117978.00, 187500.00, 187500.00, 187500.00, 187500.00, 187500.00, 187500.00, 0
182, 187500.00, -118379.57, 187500.00, 187500.00, 187500.00, 187500.00, 187500.00, 187500.00, 0
183, 187500.00, -119378.20, 187500.00, 187500.00, 187500.00, 187500.00, 187500.00, 187500.00, 0
184, 187500.00, -118964.49, 187500.00, 187500.00, 187500.00, 187500.00, 187500.00, 187500.00, 0
185, 187500.00, -118029.09, 187500.00, 187500.00, 187500.00, 187500.00, 187500.00, 187500.00, 0
186, 187500.00, -118219.65, 187500.00, 187500.00, 187500.00, 187500.00, 187500.00, 187500.00, 0
187, 187500.00, -119259.49, 187500.00, 187500.00, 187500.00, 187500.00, 187500.00, 187500.00, 0
188, 187500.00, -119140.05, 187500.00, 187500.00, 187500.00, 187500.00, 187500.00, 187500.00, 0
189, 187500.00, -118094.68, 187500.00, 187500.00, 187500.00, 187500.00, 187500.00, 187500.00, 0
190, 187500.00, -118087.08, 187500.00, 187500.00, 187500.00, 187500.00, 187500.00, 187500.00, 0
191, 187500.00, -119060.12, 187500.00, 187500.00, 187500.00, 187500.00, 187500.00, 187500.00, 0
192, 187500.00, -119304.17, 187500.00, 187500.00, 187500.00, 187500.00, 187500.00, 187500.00, 0
193, 187500.00, -118294.01, 187500.00, 187500.00, 187500.00, 187500.00, 187500.00, 187500.00, 0
194, 187500.00, -118058.27, 187500.00, 187500.00, 187500.00, 187500.00, 187500.00, 187500.00, 0
195, 187500.00, -118910.07, 187500.00, 187500.00, 187500.00, 187500.00, 187500.00, 187500.00, 0
196, 187500.00, -119430.26, 187500.00, 187500.00, 187500.00, 187500.00, 187500.00, 187500.00, 0
197, 187500.00, -118438.13, 187500.00, 187500.00, 187500.00, 187500.00, 187500.00, 187500.00, 0
198, 187500.00, -118006.08, 187500.00, 187500.00, 187500.00, 187500.00, 187500.00, 187500.00, 0
199, 187500.00, -118705.95, 187500.00, 187500.00, 187500.00, 187500.00, 187500.00, 187500.00, 0
200, 187500.00, -119445.17, 187500.00, 187500.00, 187500.00, 187500.00, 187500.00, 187500.00, 0
201, 187500.00, -118607.27, 187500.00, 187500.00, 187500.00, 187500.00, 187500.00, 187500.00, 0
202, 187500.00, -117989.53, 187500.00, 187500.00, 187500.00, 187500.00, 187500.00, 187500.00, 0
203, 187500.00, -118536.37, 187500.00, 187500.00, 187500.00, 187500.00, 187500.00, 187500.00, 0
204, 187500.00, -119445.91, 187500.00, 187500.00, 187500.00, 187500.00, 187500.00, 187500.00, 0
205, 187500.00, -118830.63, 187500.00, 187500.00, 187500.00, 187500.00, 187500.00, 187500.00, 0
206, 187500.00, -118017.19, 187500.00, 187500.00, 187500.00, 187500.00, 187500.00, 187500.00, 0
207, 187500.00, -118351.16, 187500.00, 187500.00, 187500.00, 187500.00, 187500.00, 187500.00, 0
208, 187500.00, -119353.77, 187500.00, 187500.00, 187500.00, 187500.00, 187500.00, 187500.00, 0
209, 187500.00, -119031.48, 187500.00, 187500.00, 187500.00, 187500.00, 187500.00, 187500.00, 0
210, 187500.00, -118080.17, 187500.00, 187500.00, 187500.00, 187500.00, 187500.00, 187500.00, 0
211, 187500.00, -118214.66, 187500.00, 187500.00, 187500.00, 187500.00, 187500.00, 187500.00, 0
212, 187500.00, -119208.47, 187500.00, 187500.00, 187500.00, 187500.00, 187500.00, 187500.00, 0
213, 187500.00, -119188.26, 187500.00, 187500.00, 187500.00, 187500.00, 187500.00, 187500.00, 0
214, 187500.00, -118133.75, 187500.00, 187500.00, 187500.00, 187500.00, 187500.00, 187500.00, 0
215, 187500.00, -118056.52, 187500.00, 187500.00, 187500.00, 187500.00, 187500.00, 187500.00, 0
216, 187500.00, -119030.26, 187500.00, 187500.00, 187500.00, 187500.00, 187500.00, 187500.00, 0
217, 187500.00, -119366.20, 187500.00, 187500.00, 187500.00, 187500.00, 187500.00, 187500.00, 0
218, 187500.00, -118321.08, 187500.00, 187500.00, 187500.00, 187500.00, 187500.00, 187500.00, 0
219, 187500.00, -118011.24, 187500.00, 187500.00, 187500.00, 187500.00, 187500.00, 187500.00, 0
220, 187500.00, -118831.86, 187500.00, 187500.00, 187500.00, 187500.00, 187500.00, 187500.00, 0
221, 187500.00, -119455.14, 187500.00, 187500.00, 187500.00, 187500.00, 187500.00, 187500.00, 0
222, 187500.00, -118493.74, 187500.00, 187500.00, 187500.00, 187500.00, 187500.00, 187500.00, 0
223, 187500.00, -117995.77, 187500.00, 187500.00, 187500.00, 187500.00, 187500.00, 187500.00, 0
224, 187500.00, -118676.85, 187500.00, 187500.00, 187500.00, 187500.00, 187500.00, 187500.00, 0
225, 187500.00, -119497.41, 187500.00, 187500.00, 187500.00, 187500.00, 187500.00, 187500.00, 0
226, 187500.00, -118694.27, 187500.00, 187500.00, 187500.00, 187500.00, 187500.00, 187500.00, 0
227, 187500.00, -117994.43, 187500.00, 187500.00, 187500.00, 187500.00, 187500.00, 187500.00, 0
228, 187500.00, -118471.64, 187500.00, 187500.00, 187500.00, 187500.00, 187500.00, 187500.00, 0
229, 187500.00, -119411.46, 187500.00, 187500.00, 187500.00, 187500.00, 187500.00, 187500.00, 0
230, 187500.00, -118841.83, 187500.00, 187500.00, 187500.00, 187500.00, 187500.00, 187500.00, 0
231, 187500.00, -117992.38, 187500.00, 187500.00, 187500.00, 187500.00, 187500.00, 187500.00, 0
232, 187500.00, -118300.56, 187500.00, 187500.00, 187500.00, 187500.00, 187500.00, 187500.00, 0
233, 187500.00, -119306.61, 187500.00, 187500.00, 187500.00, 187500.00, 187500.00, 187500.00, 0
234, 187500.00, -119067.45, 187500.00, 187500.00, 187500.00, 187500.00, 187500.00, 187500.00, 0
235, 187500.00, -118072.64, 187500.00, 187500.00, 187500.00, 187500.00, 187500.00, 187500.00, 0
236, 187500.00, -118133.03, 187500.00, 187500.00, 187500.00, 187500.00, 187500.00, 187500.00, 0
237, 187500.00, -119140.12, 187500.00, 187500.00, 187500.00, 187500.00, 187500.00, 187500.00, 0
238, 187500.00, -119263.16, 187500.00, 187500.00, 187500.00, 187500.00, 187500.00, 187500.00, 0
239, 187500.00, -118224.59, 187500.00, 187500.00, 187500.00, 187500.00, 187500.00, 187500.00, 0
240, 187500.00, -118070.74, 187500.00, 187500.00, 187500.00, 187500.00, 187500.00, 187500.00, 0
241, 187500.00, -118983.52, 187500.00, 187500.00, 187500.00, 187500.00, 187500.00, 187500.00, 0
242, 187500.00, -119362.94, 187500.00, 187500.00, 187500.00, 187500.00, 187500.00, 187500.00, 0
243, 187500.00, -118320.12, 187500.00, 187500.00, 187500.00, 187500.00, 187500.00, 187500.00, 0
244, 187500.00, -117965.89, 187500.00, 187500.00, 187500.00, 187500.00, 187500.00, 187500.00, 0
245, 187500.00, -118754.14, 187500.00, 187500.00, 187500.00, 187500.00, 187500.00, 187500.00, 0
246, 187500.00, -119457.95, 187500.00, 187500.00, 187500.00, 187500.00, 187500.00, 187500.00, 0
247, 187500.00, -118558.55, 187500.00, 187500.00, 187500.00, 187500.00, 187500.00, 187500.00, 0
248, 187500.00, -117992.75, 187500.00, 187500.00, 187500.00, 187500.00, 187500.00, 187500.00, 0
249, 187500.00, -118590.20, 187500.00, 187500.00, 187500.00, 187500.00, 187500.00, 187500.00, 0
250, 187500.00, -119427.20, 187500.00, 187500.00, 187500.00, 187500.00, 187500.00, 187500.00, 0
251, 187500.00, -118681.61, 187500.00, 187500.00, 187500.00, 187500.00, 187500.00, 187500.00, 0
252, 187500.00, -117964.05, 187500.00, 187500.00, 187500.00, 187500.00, 187500.00, 187500.00, 0
253, 187500.00, -118417.23, 187500.00, 187500.00, 187500.00, 187500.00, 187500.00, 187500.00, 0
254, 187500.00, -119399.98, 187500.00, 187500.00, 187500.00, 187500.00, 187500.00, 187500.00, 0
255, 187500.00, -118947.51, 187500.00, 187500.00, 187500.00, 187500.00, 187500.00, 187500.00, 0
0, 187500.00, -118010.73, 187500.00, 187500.00, 187500.00, 187500.00, 187500.00, 187500.00, 0
1, 187500.00, -118204.11, 187500.00, 187500.00, 187500.00, 187500.00, 187500.00, 187500.00, 0
2, 187500.00, -119226.39, 187500.00, 187500.00, 187500.00, 187500.00, 187500.00, 187500.00, 0
3, 187500.00, -119095.43, 187500.00, 187500.00, 187500.00, 187500.00, 187500.00, 187500.00, 0
4, 187500.00, -118080.35, 187500.00, 187500.00, 187500.00, 187500.00, 187500.00, 187500.00, 0
5, 187500.00, -118094.37, 187500.00, 187500.00, 187500.00, 187500.00, 187500.00, 187500.00, 0
6, 187500.00, -119102.90, 187500.00, 187500.00, 187500.00, 187500.00, 187500.00, 187500.00, 0
7, 187500.00, -119273.76, 187500.00, 187500.00, 187500.00, 187500.00, 187500.00, 187500.00, 0
8, 187500.00, -118198.86, 187500.00, 187500.00, 187500.00, 187500.00, 187500.00, 187500.00, 0
9, 187500.00, -117990.23, 187500.00, 187500.00, 187500.00, 187500.00, 187500.00, 187500.00, 0
10, 187500.00, -118904.52, 187500.00, 187500.00, 187500.00, 187500.00, 187500.00, 187500.00, 0
11, 187500.00, -119389.16, 187500.00, 187500.00, 187500.00, 187500.00, 187500.00, 187500.00, 0
12, 187500.00, -118378.97, 187500.00, 187500.00, 187500.00, 187500.00, 187500.00, 187500.00, 0
13, 187500.00, -117977.89, 187500.00, 187500.00, 187500.00, 187500.00, 187500.00, 187500.00, 0
14, 187500.00, -118712.10, 187500.00, 187500.00, 187500.00, 187500.00, 187500.00, 187500.00, 0
15, 187500.00, -119435.13, 187500.00, 187500.00, 187500.00, 187500.00, 187500.00, 187500.00, 0
16, 187500.00, -118535.90, 187500.00, 187500.00, 187500.00, 187500.00, 187500.00, 187500.00, 0
17, 187500.00, -117909.23, 187500.00, 187500.00, 187500.00, 187500.00, 187500.00, 187500.00, 0
18, 187500.00, -118481.36, 187500.00, 187500.00, 187500.00, 187500.00, 187500.00, 187500.00, 0
19, 187500.00, -119374.20, 187500.00, 187500.00, 187500.00, 187500.00, 187500.00, 187500.00, 0
20, 187500.00, -118723.45, 187500.00, 187500.00, 187500.00, 187500.00, 187500.00, 187500.00, 0
21, 187500.00, -117921.98, 187500.00, 187500.00, 187500.00, 187500.00, 187500.00, 187500.00, 0
22, 187500.00, -118282.95, 187500.00, 187500.00, 187500.00, 187500.00, 187500.00, 187500.00, 0
23, 187500.00, -119239.47, 187500.00, 187500.00, 187500.00, 187500.00, 187500.00, 187500.00, 0
24, 187500.00, -118886.65, 187500.00, 187500.00, 187500.00, 187500.00, 187500.00, 187500.00, 0
25, 187500.00, -118015.98, 187500.00, 187500.00, 187500.00, 187500.00, 187500.00, 187500.00, 0
26, 187500.00, -118187.10, 187500.00, 187500.00, 187500.00, 187500.00, 187500.00, 187500.00, 0
27, 187500.00, -119182.25, 187500.00, 187500.00, 187500.00, 187500.00, 187500.00, 187500.00, 0
28, 187500.00, -119109.85, 187500.00, 187500.00, 187500.00, 187500.00, 187500.00, 187500.00, 0
29, 187500.00, -118078.14, 187500.00, 187500.00, 187500.00, 187500.00, 187500.00, 187500.00, 0
30, 187500.00, -118019.46, 187500.00, 187500.00, 187500.00, 187500.00, 187500.00, 187500.00, 0
31, 187500.00, -118969.95, 187500.00, 187500.00, 187500.00, 187500.00, 187500.00, 187500.00, 0
32, 187500.00, -119227.04, 187500.00, 187500.00, 187500.00, 187500.00, 187500.00, 187500.00, 0
33, 187500.00, -118166.47, 187500.00, 187500.00, 187500.00, 187500.00, 187500.00, 187500.00, 0
34, 187500.00, -117910.45, 187500.00, 187500.00, 187500.00, 187500.00, 187500.00, 187500.00, 0
35, 187500.00, -118781.79, 187500.00, 187500.00, 187500.00, 187500.00, 187500.00, 187500.00, 0
36, 187500.00, -119344.63, 187500.00, 187500.00, 187500.00, 187500.00, 187500.00, 187500.00, 0
37, 187500.00, -118339.85, 187500.00, 187500.00, 187500.00, 187500.00, 187500.00, 187500.00, 0
38, 187500.00, -117868.59, 187500.00, 187500.00, 187500.00, 187500.00, 187500.00, 187500.00, 0
39, 187500.00, -118572.40, 187500.00, 187500.00, 187500.00, 187500.00, 187500.00, 187500.00, 0
40, 187500.00, -119363.05, 187500.00, 187500.00, 187500.00, 187500.00, 187500.00, 187500.00, 0
41, 187500.00, -118555.48, 187500.00, 187500.00, 187500.00, 187500.00, 187500.00, 187500.00, 0
42, 187500.00, -117881.04, 187500.00, 187500.00, 187500.00, 187500.00, 187500.00, 187500.00, 0
43, 187500.00, -118374.48, 187500.00, 187500.00, 187500.00, 187500.00, 187500.00, 187500.00, 0
44, 187500.00, -119321.38, 187500.00, 187500.00, 187500.00, 187500.00, 187500.00, 187500.00, 0
45, 187500.00, -118755.40, 187500.00, 187500.00, 187500.00, 187500.00, 187500.00, 187500.00, 0
46, 187500.00, -117911.35, 187500.00, 187500.00, 187500.00, 187500.00, 187500.00, 187500.00, 0
47, 187500.00, -118215.24, 187500.00, 187500.00, 187500.00, 187500.00, 187500.00, 187500.00, 0
48, 187500.00, -119215.75, 187500.00, 187500.00, 187500.00, 187500.00, 187500.00, 187500.00, 0
49, 187500.00, -118938.73, 187500.00, 187500.00, 187500.00, 187500.00, 187500.00, 187500.00, 0
50, 187500.00, -117973.82, 187500.00, 187500.00, 187500.00, 187500.00, 187500.00, 187500.00, 0
51, 187500.00, -118091.10, 187500.00, 187500.00, 187500.00, 187500.00, 187500.00, 187500.00, 0
52, 187500.00, -119082.27, 187500.00, 187500.00, 187500.00, 187500.00, 187500.00, 187500.00, 0
53, 187500.00, -119113.34, 187500.00, 187500.00, 187500.00, 187500.00, 187500.00, 187500.00, 0
54, 187500.00, -118061.66, 187500.00, 187500.00, 187500.00, 187500.00, 187500.00, 187500.00, 0
55, 187500.00, -117956.23, 187500.00, 187500.00, 187500.00, 187500.00, 187500.00, 187500.00, 0
56, 187500.00, -118868.47, 187500.00, 187500.00, 187500.00, 187500.00, 187500.00, 187500.00, 0
57, 187500.00, -119250.06, 187500.00, 187500.00, 187500.00, 187500.00, 187500.00, 187500.00, 0
58, 187500.00, -118255.79, 187500.00, 187500.00, 187500.00, 187500.00, 187500.00, 187500.00, 0
59, 187500.00, -117940.95, 187500.00, 187500.00, 187500.00, 187500.00, 187500.00, 187500.00, 0
60, 187500.00, -118729.71, 187500.00, 187500.00, 187500.00, 187500.00, 187500.00, 187500.00, 0
61, 187500.00, -119346.60, 187500.00, 187500.00, 187500.00, 187500.00, 187500.00, 187500.00, 0
62, 187500.00, -118401.26, 187500.00, 187500.00, 187500.00, 187500.00, 187500.00, 187500.00, 0
63, 187500.00, -117861.88, 187500.00, 187500.00, 187500.00, 187500.00, 187500.00, 187500.00, 0
64, 187500.00, -118488.09, 187500.00, 187500.00, 187500.00, 187500.00, 187500.00, 187500.00, 0
65, 187500.00, -119352.84, 187500.00, 187500.00, 187500.00, 187500.00, 187500.00, 187500.00, 0
66, 187500.00, -118634.49, 187500.00, 187500.00, 187500.00, 187500.00, 187500.00, 187500.00, 0
67, 187500.00, -117898.45, 187500.00, 187500.00, 187500.00, 187500.00, 187500.00, 187500.00, 0
68, 187500.00, -118322.20, 187500.00, 187500.00, 187500.00, 187500.00, 187500.00, 187500.00, 0
69, 187500.00, -119284.15, 187500.00, 187500.00, 187500.00, 187500.00, 187500.00, 187500.00, 0
70, 187500.00, -118804.55, 187500.00, 187500.00, 187500.00, 187500.00, 187500.00, 187500.00, 0
71, 187500.00, -117919.87, 187500.00, 187500.00, 187500.00, 187500.00, 187500.00, 187500.00, 0
72, 187500.00, -118150.89, 187500.00, 187500.00, 187500.00, 187500.00, 187500.00, 187500.00, 0
73, 187500.00, -119168.23, 187500.00, 187500.00, 187500.00, 187500.00, 187500.00, 187500.00, 0
74, 187500.00, -119012.58, 187500.00, 187500.00, 187500.00, 187500.00, 187500.00, 187500.00, 0
75, 187500.00, -118008.31, 187500.00, 187500.00, 187500.00, 187500.00, 187500.00, 187500.00, 0
76, 187500.00, -118029.14, 187500.00, 187500.00, 187500.00, 187500.00, 187500.00, 187500.00, 0
77, 187500.00, -118994.85, 187500.00, 187500.00, 187500.00, 187500.00, 187500.00, 187500.00, 0
78, 187500.00, -119160.14, 187500.00, 187500.00, 187500.00, 187500.00, 187500.00, 187500.00, 0
79, 187500.00, -118112.25, 187500.00, 187500.00, 187500.00, 187500.00, 187500.00, 187500.00, 0
80, 187500.00, -117925.36, 187500.00, 187500.00, 187500.00, 187500.00, 187500.00, 187500.00, 0
81, 187500.00, -118819.68, 187500.00, 187500.00, 187500.00, 187500.00, 187500.00, 187500.00, 0
82, 187500.00, -119279.16, 187500.00, 187500.00, 187500.00, 187500.00, 187500.00, 187500.00, 0
83, 187500.00, -118291.33, 187500.00, 187500.00, 187500.00, 187500.00, 187500.00, 187500.00, 0
84, 187500.00, -117899.66, 187500.00, 187500.00, 187500.00, 187500.00, 187500.00, 187500.00, 0
85, 187500.00, -118618.71, 187500.00, 187500.00, 187500.00, 187500.00, 187500.00, 187500.00, 0
86, 187500.00, -119311.20, 187500.00, 187500.00, 187500.00, 187500.00, 187500.00, 187500.00, 0
87, 187500.00, -118445.84, 187500.00, 187500.00, 187500.00, 187500.00, 187500.00, 187500.00, 0
88, 187500.00, -117850.33, 187500.00, 187500.00, 187500.00, 187500.00, 187500.00, 187500.00, 0
89, 187500.00, -118436.13, 187500.00, 187500.00, 187500.00, 187500.00, 187500.00, 187500.00, 0
90, 187500.00, -119338.91, 187500.00, 187500.00, 187500.00, 187500.00, 187500.00, 187500.00, 0
91, 187500.00, -118673.50, 187500.00, 187500.00, 187500.00, 187500.00, 187500.00, 187500.00, 0
92, 187500.00, -117891.12, 187500.00, 187500.00, 187500.00, 187500.00, 187500.00, 187500.00, 0
93, 187500.00, -118256.46, 187500.00, 187500.00, 187500.00, 187500.00, 187500.00, 187500.00, 0
94, 187500.00, -119246.20, 187500.00, 187500.00, 187500.00, 187500.00, 187500.00, 187500.00, 0
95, 187500.00, -118856.98, 187500.00, 187500.00, 187500.00, 187500.00, 187500.00, 187500.00, 0
96, 187500.00, -117912.69, 187500.00, 187500.00, 187500.00, 187500.00, 187500.00, 187500.00, 0
97, 187500.00, -118092.95, 187500.00, 187500.00, 187500.00, 187500.00, 187500.00, 187500.00, 0
98, 187500.00, -119111.57, 187500.00, 187500.00, 187500.00, 187500.00, 187500.00, 187500.00, 0
99, 187500.00, -119044.65, 187500.00, 187500.00, 187500.00, 187500.00, 187500.00, 187500.00, 0
100, 187500.00, -118038.38, 187500.00, 187500.00, 187500.00, 187500.00, 187500.00, 187500.00, 0
101, 187500.00, -118028.98, 187500.00, 187500.00, 187500.00, 187500.00, 187500.00, 187500.00, 0
102, 187500.00, -118979.07, 187500.00, 187500.00, 187500.00, 187500.00, 187500.00, 187500.00, 0
103, 187500.00, -119200.53, 187500.00, 187500.00, 187500.00, 187500.00, 187500.00, 187500.00, 0
104, 187500.00, -118155.30, 187500.00, 187500.00, 187500.00, 187500.00, 187500.00, 187500.00, 0
105, 187500.00, -117893.98, 187500.00, 187500.00, 187500.00, 187500.00, 187500.00, 187500.00, 0
106, 187500.00, -118728.91, 187500.00, 187500.00, 187500.00, 187500.00, 187500.00, 187500.00, 0
107, 187500.00, -119279.61, 187500.00, 187500.00, 187500.00, 187500.00, 187500.00, 187500.00, 0
108, 187500.00, -118329.84, 187500.00, 187500.00, 187500.00, 187500.00, 187500.00, 187500.00, 0
109, 187500.00, -117878.00, 187500.00, 187500.00, 187500.00, 187500.00, 187500.00, 187500.00, 0
110, 187500.00, -118573.67, 187500.00, 187500.00, 187500.00, 187500.00, 187500.00, 187500.00, 0
111, 187500.00, -119334.40, 187500.00, 187500.00, 187500.00, 187500.00, 187500.00, 187500.00, 0
112, 187500.00, -118512.05, 187500.00, 187500.00, 187500.00, 187500.00, 187500.00, 187500.00, 0
113, 187500.00, -117868.63, 187500.00, 187500.00, 187500.00, 187500.00, 187500.00, 187500.00, 0
114, 187500.00, -118382.92, 187500.00, 187500.00, 187500.00, 187500.00, 187500.00, 187500.00, 0
115, 187500.00, -119310.45, 187500.00, 187500.00, 187500.00, 187500.00, 187500.00, 187500.00, 0
116, 187500.00, -118722.13, 187500.00, 187500.00, 187500.00, 187500.00, 187500.00, 187500.00, 0
117, 187500.00, -117889.11, 187500.00, 187500.00, 187500.00, 187500.00, 187500.00, 187500.00, 0
118, 187500.00, -118204.72, 187500.00, 187500.00, 187500.00, 187500.00, 187500.00, 187500.00, 0
119, 187500.00, -119197.76, 187500.00, 187500.00, 187500.00, 187500.00, 187500.00, 187500.00, 0
120, 187500.00, -118908.15, 187500.00, 187500.00, 187500.00, 187500.00, 187500.00, 187500.00, 0
121, 187500.00, -117983.01, 187500.00, 187500.00, 187500.00, 187500.00, 187500.00, 187500.00, 0
122, 187500.00, -118106.03, 187500.00, 187500.00, 187500.00, 187500.00, 187500.00, 187500.00, 0
123, 187500.00, -119091.74, 187500.00, 187500.00, 187500.00, 187500.00, 187500.00, 187500.00, 0
124, 187500.00, -119091.21, 187500.00, 187500.00, 187500.00, 187500.00, 187500.00, 187500.00, 0
125, 187500.00, -118043.34, 187500.00, 187500.00, 187500.00, 187500.00, 187500.00, 187500.00, 0
126, 187500.00, -117967.12, 187500.00, 187500.00, 187500.00, 187500.00, 187500.00, 187500.00, 0
127, 187500.00, -118894.53, 187500.00, 187500.00, 187500.00, 187500.00, 187500.00, 187500.00, 0
128, 187500.00, -119203.10, 187500.00, 187500.00, 187500.00, 187500.00, 187500.00, 187500.00, 0
129, 187500.00, -118167.23, 187500.00, 187500.00, 187500.00, 187500.00, 187500.00, 187500.00, 0
130, 187500.00, -117891.92, 187500.00, 187500.00, 187500.00, 187500.00, 187500.00, 187500.00, 0
131, 187500.00, -118714.73, 187500.00, 187500.00, 187500.00, 187500.00, 187500.00, 187500.00, 0
132, 187500.00, -119310.08, 187500.00, 187500.00, 187500.00, 187500.00, 187500.00, 187500.00, 0
133, 187500.00, -118362.50, 187500.00, 187500.00, 187500.00, 187500.00, 187500.00, 187500.00, 0
134, 187500.00, -117836.41, 187500.00, 187500.00, 187500.00, 187500.00, 187500.00, 187500.00, 0
135, 187500.00, -118471.04, 187500.00, 187500.00, 187500.00, 187500.00, 187500.00, 187500.00, 0
136, 187500.00, -119318.10, 187500.00, 187500.00, 187500.00, 187500.00, 187500.00, 187500.00, 0
137, 187500.00, -118568.20, 187500.00, 187500.00, 187500.00, 187500.00, 187500.00, 187500.00, 0
138, 187500.00, -117866.71, 187500.00, 187500.00, 187500.00, 187500.00, 187500.00, 187500.00, 0
139, 187500.00, -118313.48, 187500.00, 187500.00, 187500.00, 187500.00, 187500.00, 187500.00, 0
140, 187500.00, -119249.08, 187500.00, 187500.00, 187500.00, 187500.00, 187500.00, 187500.00, 0
141, 187500.00, -118720.52, 187500.00, 187500.00, 187500.00, 187500.00, 187500.00, 187500.00, 0
142, 187500.00, -117871.72, 187500.00, 187500.00, 187500.00, 187500.00, 187500.00, 187500.00, 0
143, 187500.00, -118157.62, 187500.00, 187500.00, 187500.00, 187500.00, 187500.00, 187500.00, 0
144, 187500.00, -119169.91, 187500.00, 187500.00, 187500.00, 187500.00, 187500.00, 187500.00, 0
145, 187500.00, -118972.14, 187500.00, 187500.00, 187500.00, 187500.00, 187500.00, 187500.00, 0
146, 187500.00, -117986.34, 187500.00, 187500.00, 187500.00, 187500.00, 187500.00, 187500.00, 0
147, 187500.00, -118033.88, 187500.00, 187500.00, 187500.00, 187500.00, 187500.00, 187500.00, 0
148, 187500.00, -119002.85, 187500.00, 187500.00, 187500.00, 187500.00, 187500.00, 187500.00, 0
149, 187500.00, -119102.90, 187500.00, 187500.00, 187500.00, 187500.00, 187500.00, 187500.00, 0
150, 187500.00, -118086.85, 187500.00, 187500.00, 187500.00, 187500.00, 187500.00, 187500.00, 0
151, 187500.00, -117952.86, 187500.00, 187500.00, 187500.00, 187500.00, 187500.00, 187500.00, 0
152, 187500.00, -118832.29, 187500.00, 187500.00, 187500.00, 187500.00, 187500.00, 187500.00, 0
153, 187500.00, -119227.55, 187500.00, 187500.00, 187500.00, 187500.00, 187500.00, 187500.00, 0
154, 187500.00, -118219.73, 187500.00, 187500.00, 187500.00, 187500.00, 187500.00, 187500.00, 0
155, 187500.00, -117875.43, 187500.00, 187500.00, 187500.00, 187500.00, 187500.00, 187500.00, 0
156, 187500.00, -118651.17, 187500.00, 187500.00, 187500.00, 187500.00, 187500.00, 187500.00, 0
157, 187500.00, -119309.83, 187500.00, 187500.00, 187500.00, 187500.00, 187500.00, 187500.00, 0
158, 187500.00, -118405.48, 187500.00, 187500.00, 187500.00, 187500.00, 187500.00, 187500.00, 0
159, 187500.00, -117830.16, 187500.00, 187500.00, 187500.00, 187500.00, 187500.00, 187500.00, 0
160, 187500.00, -118427.52, 187500.00, 187500.00, 187500.00, 187500.00, 187500.00, 187500.00, 0
161, 187500.00, -119316.27, 187500.00, 187500.00, 187500.00, 187500.00, 187500.00, 187500.00, 0
162, 187500.00, -118625.66, 187500.00, 187500.00, 187500.00, 187500.00, 187500.00, 187500.00, 0
163, 187500.00, -117864.61, 187500.00, 187500.00, 187500.00, 187500.00, 187500.00, 187500.00, 0
164, 187500.00, -118242.53, 187500.00, 187500.00, 187500.00, 187500.00, 187500.00, 187500.00, 0
165, 187500.00, -119224.70, 187500.00, 187500.00, 187500.00, 187500.00, 187500.00, 187500.00, 0
166, 187500.00, -118812.23, 187500.00, 187500.00, 187500.00, 187500.00, 187500.00, 187500.00, 0
167, 187500.00, -117898.72, 187500.00, 187500.00, 187500.00, 187500.00, 187500.00, 187500.00, 0
168, 187500.00, -118113.25, 187500.00, 187500.00, 187500.00, 187500.00, 187500.00, 187500.00, 0
169, 187500.00, -119108.62, 187500.00, 187500.00, 187500.00, 187500.00, 187500.00, 187500.00, 0
170, 187500.00, -119004.41, 187500.00, 187500.00, 187500.00, 187500.00, 187500.00, 187500.00, 0
171, 187500.00, -117983.50, 187500.00, 187500.00, 187500.00, 187500.00, 187500.00, 187500.00, 0
172, 187500.00, -117964.57, 187500.00, 187500.00, 187500.00, 187500.00, 187500.00, 187500.00, 0
173, 187500.00, -118956.67, 187500.00, 187500.00, 187500.00, 187500.00, 187500.00, 187500.00, 0
174, 187500.00, -119162.48, 187500.00, 187500.00, 187500.00, 187500.00, 187500.00, 187500.00, 0
175, 187500.00, -118102.97, 187500.00, 187500.00, 187500.00, 187500.00, 187500.00, 187500.00, 0
176, 187500.00, -117911.10, 187500.00, 187500.00, 187500.00, 187500.00, 187500.00, 187500.00, 0
177, 187500.00, -118782.98, 187500.00, 187500.00, 187500.00, 187500.00, 187500.00, 187500.00, 0
178, 187500.00, -119275.63, 187500.00, 187500.00, 187500.00, 187500.00, 187500.00, 187500.00, 0
179, 187500.00, -118282.99, 187500.00, 187500.00, 187500.00, 187500.00, 187500.00, 187500.00, 0
180, 187500.00, -117855.72, 187500.00, 187500.00, 187500.00, 187500.00, 187500.00, 187500.00, 0
181, 187500.00, -118570.05, 187500.00, 187500.00, 187500.00, 187500.00, 187500.00, 187500.00, 0
182, 187500.00, -119306.21, 187500.00, 187500.00, 187500.00, 187500.00, 187500.00, 187500.00, 0
183, 187500.00, -118440.13, 187500.00, 187500.00, 187500.00, 187500.00, 187500.00, 187500.00, 0
184, 187500.00, -117832.83, 187500.00, 187500.00, 187500.00, 187500.00, 187500.00, 187500.00, 0
185, 187500.00, -118396.09, 187500.00, 187500.00, 187500.00, 187500.00, 187500.00, 187500.00, 0
186, 187500.00, -119313.18, 187500.00, 187500.00, 187500.00, 187500.00, 187500.00, 187500.00, 0
187, 187500.00, -118685.61, 187500.00, 187500.00, 187500.00, 187500.00, 187500.00, 187500.00, 0
188, 187500.00, -117894.07, 187500.00, 187500.00, 187500.00, 187500.00, 187500.00, 187500.00, 0
189, 187500.00, -118226.84, 187500.00, 187500.00, 187500.00, 187500.00, 187500.00, 187500.00, 0
190, 187500.00, -119194.07, 187500.00, 187500.00, 187500.00, 187500.00, 187500.00, 187500.00, 0
191, 187500.00, -118874.42, 187500.00, 187500.00, 187500.00, 187500.00, 187500.00, 187500.00, 0
192, 187500.00, -117952.56, 187500.00, 187500.00, 187500.00, 187500.00, 187500.00, 187500.00, 0
193, 187500.00, -118086.25, 187500.00, 187500.00, 187500.00, 187500.00, 187500.00, 187500.00, 0
194, 187500.00, -119086.27, 187500.00, 187500.00, 187500.00, 187500.00, 187500.00, 187500.00, 0
195, 187500.00, -119056.52, 187500.00, 187500.00, 187500.00, 187500.00, 187500.00, 187500.00, 0
196, 187500.00, -118013.56, 187500.00, 187500.00, 187500.00, 187500.00, 187500.00, 187500.00, 0
197, 187500.00, -117947.83, 187500.00, 187500.00, 187500.00, 187500.00, 187500.00, 187500.00, 0
198, 187500.00, -118897.75, 187500.00, 187500.00, 187500.00, 187500.00, 187500.00, 187500.00, 0
199, 187500.00, -119196.53, 187500.00, 187500.00, 187500.00, 187500.00, 187500.00, 187500.00, 0
200, 187500.00, -118161.58, 187500.00, 187500.00, 187500.00, 187500.00, 187500.00, 187500.00, 0
201, 187500.00, -117873.15, 187500.00, 187500.00, 187500.00, 187500.00, 187500.00, 187500.00, 0
202, 187500.00, -118695.34, 187500.00, 187500.00, 187500.00, 187500.00, 187500.00, 187500.00, 0
203, 187500.00, -119279.66, 187500.00, 187500.00, 187500.00, 187500.00, 187500.00, 187500.00, 0
204, 187500.00, -118326.80, 187500.00, 187500.00, 187500.00, 187500.00, 187500.00, 187500.00, 0
205, 187500.00, -117831.04, 187500.00, 187500.00, 187500.00, 187500.00, 187500.00, 187500.00, 0
206, 187500.00, -118517.93, 187500.00, 187500.00, 187500.00, 187500.00, 187500.00, 187500.00, 0
207, 187500.00, -119341.34, 187500.00, 187500.00, 187500.00, 187500.00, 187500.00, 187500.00, 0
208, 187500.00, -118537.80, 187500.00, 187500.00, 187500.00, 187500.00, 187500.00, 187500.00, 0
209, 187500.00, -117828.49, 187500.00, 187500.00, 187500.00, 187500.00, 187500.00, 187500.00, 0
210, 187500.00, -118313.79, 187500.00, 187500.00, 187500.00, 187500.00, 187500.00, 187500.00, 0
211, 187500.00, -119261.51, 187500.00, 187500.00, 187500.00, 187500.00, 187500.00, 187500.00, 0
212, 187500.00, -118707.34, 187500.00, 187500.00, 187500.00, 187500.00, 187500.00, 187500.00, 0
213, 187500.00, -117858.30, 187500.00, 187500.00, 187500.00, 187500.00, 187500.00, 187500.00, 0
214, 187500.00, -118143.88, 187500.00, 187500.00, 187500.00, 187500.00, 187500.00, 187500.00, 0
215, 187500.00, -119169.93, 187500.00, 187500.00, 187500.00, 187500.00, 187500.00, 187500.00, 0
216, 187500.00, -118938.08, 187500.00, 187500.00, 187500.00, 187500.00, 187500.00, 187500.00, 0
217, 187500.00, -117951.88, 187500.00, 187500.00, 187500.00, 187500.00, 187500.00, 187500.00, 0
218, 187500.00, -118022.52, 187500.00, 187500.00, 187500.00, 187500.00, 187500.00, 187500.00, 0
219, 187500.00, -119015.05, 187500.00, 187500.00, 187500.00, 187500.00, 187500.00, 187500.00, 0
220, 187500.00, -119089.22, 187500.00, 187500.00, 187500.00, 187500.00, 187500.00, 187500.00, 0
221, 187500.00, -118044.09, 187500.00, 187500.00, 187500.00, 187500.00, 187500.00, 187500.00, 0
222, 187500.00, -117911.64, 187500.00, 187500.00, 187500.00, 187500.00, 187500.00, 187500.00, 0
223, 187500.00, -118859.15, 187500.00, 187500.00, 187500.00, 187500.00, 187500.00, 187500.00, 0
224, 187500.00, -119255.98, 187500.00, 187500.00, 187500.00, 187500.00, 187500.00, 187500.00, 0
225, 187500.00, -118226.17, 187500.00, 187500.00, 187500.00, 187500.00, 187500.00, 187500.00, 0
226, 187500.00, -117873.22, 187500.00, 187500.00, 187500.00, 187500.00, 187500.00, 187500.00, 0
227, 187500.00, -118637.67, 187500.00, 187500.00, 187500.00, 187500.00, 187500.00, 187500.00, 0
228, 187500.00, -119290.41, 187500.00, 187500.00, 187500.00, 187500.00, 187500.00, 187500.00, 0
229, 187500.00, -118364.44, 187500.00, 187500.00, 187500.00, 187500.00, 187500.00, 187500.00, 0
230, 187500.00, -117814.50, 187500.00, 187500.00, 187500.00, 187500.00, 187500.00, 187500.00, 0
231, 187500.00, -118458.67, 187500.00, 187500.00, 187500.00, 187500.00, 187500.00, 187500.00, 0
232, 187500.00, -119318.44, 187500.00, 187500.00, 187500.00, 187500.00, 187500.00, 187500.00, 0
233, 187500.00, -118587.53, 187500.00, 187500.00, 187500.00, 187500.00, 187500.00, 187500.00, 0
234, 187500.00, -117853.32, 187500.00, 187500.00, 187500.00, 187500.00, 187500.00, 187500.00, 0
235, 187500.00, -118274.63, 187500.00, 187500.00, 187500.00, 187500.00, 187500.00, 187500.00, 0
236, 187500.00, -119240.09, 187500.00, 187500.00, 187500.00, 187500.00, 187500.00, 187500.00, 0
237, 187500.00, -118782.17, 187500.00, 187500.00, 187500.00, 187500.00, 187500.00, 187500.00, 0
238, 187500.00, -117884.66, 187500.00, 187500.00, 187500.00, 187500.00, 187500.00, 187500.00, 0
239, 187500.00, -118119.60, 187500.00, 187500.00, 187500.00, 187500.00, 187500.00, 187500.00, 0
240, 187500.00, -119130.99, 187500.00, 187500.00, 187500.00, 187500.00, 187500.00, 187500.00, 0
241, 187500.00, -118976.12, 187500.00, 187500.00, 187500.00, 187500.00, 187500.00, 187500.00, 0
242, 187500.00, -117966.00, 187500.00, 187500.00, 187500.00, 187500.00, 187500.00, 187500.00, 0
243, 187500.00, -117978.13, 187500.00, 187500.00, 187500.00, 187500.00, 187500.00, 187500.00, 0
244, 187500.00, -118947.42, 187500.00, 187500.00, 187500.00, 187500.00, 187500.00, 187500.00, 0
245, 187500.00, -119163.02, 187500.00, 187500.00, 187500.00, 187500.00, 187500.00, 187500.00, 0
246, 187500.00, -118130.06, 187500.00, 187500.00, 187500.00, 187500.00, 187500.00, 187500.00, 0
247, 187500.00, -117922.55, 187500.00, 187500.00, 187500.00, 187500.00, 187500.00, 187500.00, 0
248, 187500.00, -118778.64, 187500.00, 187500.00, 187500.00, 187500.00, 187500.00, 187500.00, 0
249, 187500.00, -119246.02, 187500.00, 187500.00, 187500.00, 187500.00, 187500.00, 187500.00, 0
250, 187500.00, -118251.48, 187500.00, 187500.00, 187500.00, 187500.00, 187500.00, 187500.00, 0
251, 187500.00, -117829.05, 187500.00, 187500.00, 187500.00, 187500.00, 187500.00, 187500.00, 0
252, 187500.00, -118552.02, 187500.00, 187500.00, 187500.00, 187500.00, 187500.00, 187500.00, 0
253, 187500.00, -119298.21, 187500.00, 187500.00, 187500.00, 187500.00, 187500.00, 187500.00, 0
254, 187500.00, -118439.70, 187500.00, 187500.00, 187500.00, 187500.00, 187500.00, 187500.00, 0
255, 187500.00, -117850.24, 187500.00, 187500.00, 187500.00, 187500.00, 187500.00, 187500.00, 0
0, 187500.00, -118397.99, 187500.00, 187500.00, 187500.00, 187500.00, 187500.00, 187500.00, 0
1, 187500.00, -119291.01, 187500.00, 187500.00, 187500.00, 187500.00, 187500.00, 187500.00, 0
2, 187500.00, -118659.20, 187500.00, 187500.00, 187500.00, 187500.00, 187500.00, 187500.00, 0
3, 187500.00, -117869.15, 187500.00, 187500.00, 187500.00, 187500.00, 187500.00, 187500.00, 0
4, 187500.00, -118209.14, 187500.00, 187500.00, 187500.00, 187500.00, 187500.00, 187500.00, 0
5, 187500.00, -119195.73, 187500.00, 187500.00, 187500.00, 187500.00, 187500.00, 187500.00, 0
6, 187500.00, -118839.64, 187500.00, 187500.00, 187500.00, 187500.00, 187500.00, 187500.00, 0
7, 187500.00, -117920.54, 187500.00, 187500.00, 187500.00, 187500.00, 187500.00, 187500.00, 0
8, 187500.00, -118094.16, 187500.00, 187500.00, 187500.00, 187500.00, 187500.00, 187500.00, 0
9, 187500.00, -119088.64, 187500.00, 187500.00, 187500.00, 187500.00, 187500.00, 187500.00, 0
10, 187500.00, -119034.23, 187500.00, 187500.00, 187500.00, 187500.00, 187500.00, 187500.00, 0
11, 187500.00, -118012.42, 187500.00, 187500.00, 187500.00, 187500.00, 187500.00, 187500.00, 0
12, 187500.00, -117973.84, 187500.00, 187500.00, 187500.00, 187500.00, 187500.00, 187500.00, 0
13, 187500.00, -118920.09, 187500.00, 187500.00, 187500.00, 187500.00, 187500.00, 187500.00, 0
14, 187500.00, -119172.37, 187500.00, 187500.00, 187500.00, 187500.00, 187500.00, 187500.00, 0
15, 187500.00, -118137.19, 187500.00, 187500.00, 187500.00, 187500.00, 187500.00, 187500.00, 0
16, 187500.00, -117891.23, 187500.00, 187500.00, 187500.00, 187500.00, 187500.00, 187500.00, 0
17, 187500.00, -118724.62, 187500.00, 187500.00, 187500.00, 187500.00, 187500.00, 187500.00, 0
18, 187500.00, -119274.36, 187500.00, 187500.00, 187500.00, 187500.00, 187500.00, 187500.00, 0
19, 187500.00, -118301.14, 187500.00, 187500.00, 187500.00, 187500.00, 187500.00, 187500.00, 0
20, 187500.00, -117840.59, 187500.00, 187500.00, 187500.00, 187500.00, 187500.00, 187500.00, 0
21, 187500.00, -118527.81, 187500.00, 187500.00, 187500.00, 187500.00, 187500.00, 187500.00, 0
22, 187500.00, -119323.53, 187500.00, 187500.00, 187500.00, 187500.00, 187500.00, 187500.00, 0
23, 187500.00, -118506.89, 187500.00, 187500.00, 187500.00, 187500.00, 187500.00, 187500.00, 0
24, 187500.00, -117835.69, 187500.00, 187500.00, 187500.00, 187500.00, 187500.00, 187500.00, 0
25, 187500.00, -118337.53, 187500.00, 187500.00, 187500.00, 187500.00, 187500.00, 187500.00, 0
26, 187500.00, -119264.86, 187500.00, 187500.00, 187500.00, 187500.00, 187500.00, 187500.00, 0
27, 187500.00, -118703.25, 187500.00, 187500.00, 187500.00, 187500.00, 187500.00, 187500.00, 0
28, 187500.00, -117858.22, 187500.00, 187500.00, 187500.00, 187500.00, 187500.00, 187500.00, 0
29, 187500.00, -118150.69, 187500.00, 187500.00, 187500.00, 187500.00, 187500.00, 187500.00, 0
30, 187500.00, -119172.37, 187500.00, 187500.00, 187500.00, 187500.00, 187500.00, 187500.00, 0
31, 187500.00, -118925.91, 187500.00, 187500.00, 187500.00, 187500.00, 187500.00, 187500.00, 0
32, 187500.00, -117959.65, 187500.00, 187500.00, 187500.00, 187500.00, 187500.00, 187500.00, 0
33, 187500.00, -118049.08, 187500.00, 187500.00, 187500.00, 187500.00, 187500.00, 187500.00, 0
34, 187500.00, -119023.21, 187500.00, 187500.00, 187500.00, 187500.00, 187500.00, 187500.00, 0
35, 187500.00, -119082.52, 187500.00, 187500.00, 187500.00, 187500.00, 187500.00, 187500.00, 0
36, 187500.00, -118048.41, 187500.00, 187500.00, 187500.00, 187500.00, 187500.00, 187500.00, 0
37, 187500.00, -117923.64, 187500.00, 187500.00, 187500.00, 187500.00, 187500.00, 187500.00, 0
38, 187500.00, -118831.97, 187500.00, 187500.00, 187500.00, 187500.00, 187500.00, 187500.00, 0
39, 187500.00, -119216.60, 187500.00, 187500.00, 187500.00, 187500.00, 187500.00, 187500.00, 0
40, 187500.00, -118200.18, 187500.00, 187500.00, 187500.00, 187500.00, 187500.00, 187500.00, 0
41, 187500.00, -117875.79, 187500.00, 187500.00, 187500.00, 187500.00, 187500.00, 187500.00, 0
42, 187500.00, -118670.93, 187500.00, 187500.00, 187500.00, 187500.00, 187500.00, 187500.00, 0
43, 187500.00, -119298.66, 187500.00, 187500.00, 187500.00, 187500.00, 187500.00, 187500.00, 0
44, 187500.00, -118367.70, 187500.00, 187500.00, 187500.00, 187500.00, 187500.00, 187500.00, 0
45, 187500.00, -117831.04, 187500.00, 187500.00, 187500.00, 187500.00, 187500.00, 187500.00, 0
46, 187500.00, -118445.60, 187500.00, 187500.00, 187500.00, 187500.00, 187500.00, 187500.00, 0
47, 187500.00, -119289.91, 187500.00, 187500.00, 187500.00, 187500.00, 187500.00, 187500.00, 0
48, 187500.00, -118571.15, 187500.00, 187500.00, 187500.00, 187500.00, 187500.00, 187500.00, 0
49, 187500.00, -117840.74, 187500.00, 187500.00, 187500.00, 187500.00, 187500.00, 187500.00, 0
50, 187500.00, -118276.76, 187500.00, 187500.00, 187500.00, 187500.00, 187500.00, 187500.00, 0
51, 187500.00, -119227.64, 187500.00, 187500.00, 187500.00, 187500.00, 187500.00, 187500.00, 0
52, 187500.00, -118741.11, 187500.00, 187500.00, 187500.00, 187500.00, 187500.00, 187500.00, 0
53, 187500.00, -117880.34, 187500.00, 187500.00, 187500.00, 187500.00, 187500.00, 187500.00, 0
54, 187500.00, -118125.73, 187500.00, 187500.00, 187500.00, 187500.00, 187500.00, 187500.00, 0
55, 187500.00, -119122.52, 187500.00, 187500.00, 187500.00, 187500.00, 187500.00, 187500.00, 0
56, 187500.00, -118949.66, 187500.00, 187500.00, 187500.00, 187500.00, 187500.00, 187500.00, 0
57, 187500.00, -117946.13, 187500.00, 187500.00, 187500.00, 187500.00, 187500.00, 187500.00, 0
58, 187500.00, -117985.51, 187500.00, 187500.00, 187500.00, 187500.00, 187500.00, 187500.00, 0
59, 187500.00, -118980.21, 187500.00, 187500.00, 187500.00, 187500.00, 187500.00, 187500.00, 0
60, 187500.00, -119131.28, 187500.00, 187500.00, 187500.00, 187500.00, 187500.00, 187500.00, 0
61, 187500.00, -118076.66, 187500.00, 187500.00, 187500.00, 187500.00, 187500.00, 187500.00, 0
62, 187500.00, -117885.09, 187500.00, 187500.00, 187500.00, 187500.00, 187500.00, 187500.00, 0
63, 187500.00, -118767.80, 187500.00, 187500.00, 187500.00, 187500.00, 187500.00, 187500.00, 0
64, 187500.00, -119230.48, 187500.00, 187500.00, 187500.00, 187500.00, 187500.00, 187500.00, 0
65, 187500.00, -118218.15, 187500.00, 187500.00, 187500.00, 187500.00, 187500.00, 187500.00, 0
66, 187500.00, -117850.28, 187500.00, 187500.00, 187500.00, 187500.00, 187500.00, 187500.00, 0
67, 187500.00, -118613.15, 187500.00, 187500.00, 187500.00, 187500.00, 187500.00, 187500.00, 0
68, 187500.00, -119308.24, 187500.00, 187500.00, 187500.00, 187500.00, 187500.00, 187500.00, 0
69, 187500.00, -118425.80, 187500.00, 187500.00, 187500.00, 187500.00, 187500.00, 187500.00, 0
70, 187500.00, -117818.84, 187500.00, 187500.00, 187500.00, 187500.00, 187500.00, 187500.00, 0
71, 187500.00, -118375.46, 187500.00, 187500.00, 187500.00, 187500.00, 187500.00, 187500.00, 0
72, 187500.00, -119272.16, 187500.00, 187500.00, 187500.00, 187500.00, 187500.00, 187500.00, 0
73, 187500.00, -118632.75, 187500.00, 187500.00, 187500.00, 187500.00, 187500.00, 187500.00, 0
74, 187500.00, -117857.52, 187500.00, 187500.00, 187500.00, 187500.00, 187500.00, 187500.00, 0
75, 187500.00, -118207.29, 187500.00, 187500.00, 187500.00, 187500.00, 187500.00, 187500.00, 0
76, 187500.00, -119192.55, 187500.00, 187500.00, 187500.00, 187500.00, 187500.00, 187500.00, 0
77, 187500.00, -118843.75, 187500.00, 187500.00, 187500.00, 187500.00, 187500.00, 187500.00, 0
78, 187500.00, -117920.80, 187500.00, 187500.00, 187500.00, 187500.00, 187500.00, 187500.00, 0
79, 187500.00, -118075.70, 187500.00, 187500.00, 187500.00, 187500.00, 187500.00, 187500.00, 0
80, 187500.00, -119074.47, 187500.00, 187500.00, 187500.00, 187500.00, 187500.00, 187500.00, 0
81, 187500.00, -119000.80, 187500.00, 187500.00, 187500.00, 187500.00, 187500.00, 187500.00, 0
82, 187500.00, -117971.45, 187500.00, 187500.00, 187500.00, 187500.00, 187500.00, 187500.00, 0
83, 187500.00, -117953.66, 187500.00, 187500.00, 187500.00, 187500.00, 187500.00, 187500.00, 0
84, 187500.00, -118940.60, 187500.00, 187500.00, 187500.00, 187500.00, 187500.00, 187500.00, 0
85, 187500.00, -119175.79, 187500.00, 187500.00, 187500.00, 187500.00, 187500.00, 187500.00, 0
86, 187500.00, -118119.42, 187500.00, 187500.00, 187500.00, 187500.00, 187500.00, 187500.00, 0
87, 187500.00, -117877.69, 187500.00, 187500.00, 187500.00, 187500.00, 187500.00, 187500.00, 0
88, 187500.00, -118713.20, 187500.00, 187500.00, 187500.00, 187500.00, 187500.00, 187500.00, 0
89, 187500.00, -119238.22, 187500.00, 187500.00, 187500.00, 187500.00, 187500.00, 187500.00, 0
90, 187500.00, -118271.57, 187500.00, 187500.00, 187500.00, 187500.00, 187500.00, 187500.00, 0
91, 187500.00, -117829.74, 187500.00, 187500.00, 187500.00, 187500.00, 187500.00, 187500.00, 0
92, 187500.00, -118525.06, 187500.00, 187500.00, 187500.00, 187500.00, 187500.00, 187500.00, 0
93, 187500.00, -119273.53, 187500.00, 187500.00, 187500.00, 187500.00, 187500.00, 187500.00, 0
94, 187500.00, -118449.13, 187500.00, 187500.00, 187500.00, 187500.00, 187500.00, 187500.00, 0
95, 187500.00, -117837.12, 187500.00, 187500.00, 187500.00, 187500.00, 187500.00, 187500.00, 0
96, 187500.00, -118351.79, 187500.00, 187500.00, 187500.00, 187500.00, 187500.00, 187500.00, 0
97, 187500.00, -119247.73, 187500.00, 187500.00, 187500.00, 187500.00, 187500.00, 187500.00, 0
98, 187500.00, -118672.42, 187500.00, 187500.00, 187500.00, 187500.00, 187500.00, 187500.00, 0
99, 187500.00, -117864.39, 187500.00, 187500.00, 187500.00, 187500.00, 187500.00, 187500.00, 0
100, 187500.00, -118178.61, 187500.00, 187500.00, 187500.00, 187500.00, 187500.00, 187500.00, 0
101, 187500.00, -119182.00, 187500.00, 187500.00, 187500.00, 187500.00, 187500.00, 187500.00, 0
102, 187500.00, -118865.50, 187500.00, 187500.00, 187500.00, 187500.00, 187500.00, 187500.00, 0
103, 187500.00, -117876.15, 187500.00, 187500.00, 187500.00, 187500.00, 187500.00, 187500.00, 0
104, 187500.00, -118033.32, 187500.00, 187500.00, 187500.00, 187500.00, 187500.00, 187500.00, 0
105, 187500.00, -119068.63, 187500.00, 187500.00, 187500.00, 187500.00, 187500.00, 187500.00, 0
106, 187500.00, -119070.24, 187500.00, 187500.00, 187500.00, 187500.00, 187500.00, 187500.00, 0
107, 187500.00, -118029.66, 187500.00, 187500.00, 187500.00, 187500.00, 187500.00, 187500.00, 0
108, 187500.00, -117917.23, 187500.00, 187500.00, 187500.00, 187500.00, 187500.00, 187500.00, 0
109, 187500.00, -118849.20, 187500.00, 187500.00, 187500.00, 187500.00, 187500.00, 187500.00, 0
110, 187500.00, -119195.01, 187500.00, 187500.00, 187500.00, 187500.00, 187500.00, 187500.00, 0
111, 187500.00, -118156.73, 187500.00, 187500.00, 187500.00, 187500.00, 187500.00, 187500.00, 0
112, 187500.00, -117862.02, 187500.00, 187500.00, 187500.00, 187500.00, 187500.00, 187500.00, 0
113, 187500.00, -118673.32, 187500.00, 187500.00, 187500.00, 187500.00, 187500.00, 187500.00, 0
114, 187500.00, -119279.68, 187500.00, 187500.00, 187500.00, 187500.00, 187500.00, 187500.00, 0
115, 187500.00, -118332.86, 187500.00, 187500.00, 187500.00, 187500.00, 187500.00, 187500.00, 0
116, 187500.00, -117804.82, 187500.00, 187500.00, 187500.00, 187500.00, 187500.00, 187500.00, 0
117, 187500.00, -118438.13, 187500.00, 187500.00, 187500.00, 187500.00, 187500.00, 187500.00, 0
118, 187500.00, -119292.30, 187500.00, 187500.00, 187500.00, 187500.00, 187500.00, 187500.00, 0
119, 187500.00, -118531.16, 187500.00, 187500.00, 187500.00, 187500.00, 187500.00, 187500.00, 0
120, 187500.00, -117821.38, 187500.00, 187500.00, 187500.00, 187500.00, 187500.00, 187500.00, 0
121, 187500.00, -119139.47, 187500.00, 187500.00, 187500.00, 187500.00, 187500.00, 0.00, 0
122, 187500.00, -118089.16, 187500.00, 187500.00, 187500.00, 187500.00, 187500.00, 0.00, 0
123, 187500.00, -117865.30, 187500.00, 187500.00, 187500.00, 187500.00, 187500.00, 0.00, 0
124, 187500.00, -118737.05, 187500.00, 187500.00, 187500.00, 187500.00, 187500.00, 0.00, 0
125, 187500.00, -119292.28, 187500.00, 187500.00, 187500.00, 187500.00, 187500.00, 0.00, 0
126, 187500.00, -118323.56, 187500.00, 187500.00, 187500.00, 187500.00, 187500.00, 0.00, 0
127, 187500.00, -117827.64, 187500.00, 187500.00, 187500.00, 187500.00, 187500.00, 0.00, 0
128, 187500.00, -118483.46, 187500.00, 187500.00, 187500.00, 187500.00, 187500.00, 0.00, 0
129, 187500.00, -119293.91, 187500.00, 187500.00, 187500.00, 187500.00, 187500.00, 0.00, 0
130, 187500.00, -118506.58, 187500.00, 187500.00, 187500.00, 187500.00, 187500.00, 0.00, 0
131, 187500.00, -117825.36, 187500.00, 187500.00, 187500.00, 187500.00, 187500.00, 0.00, 0
132, 187500.00, -118329.33, 187500.00, 187500.00, 187500.00, 187500.00, 187500.00, 0.00, 0
133, 187500.00, -119285.53, 187500.00, 187500.00, 187500.00, 187500.00, 187500.00, 0.00, 0
134, 187500.00, -118727.01, 187500.00, 187500.00, 187500.00, 187500.00, 187500.00, 0.00, 0
135, 187500.00, -117865.75, 187500.00, 187500.00, 187500.00, 187500.00, 187500.00, 0.00, 0
136, 187500.00, -118146.96, 187500.00, 187500.00, 187500.00, 187500.00, 187500.00, 0.00, 0
137, 187500.00, -119145.05, 187500.00, 187500.00, 187500.00, 187500.00, 187500.00, 0.00, 0
138, 187500.00, -118901.09, 187500.00, 187500.00, 187500.00, 187500.00, 187500.00, 0.00, 0
139, 187500.00, -117945.03, 187500.00, 187500.00, 187500.00, 187500.00, 187500.00, 0.00, 0
140, 187500.00, -118021.37, 187500.00, 187500.00, 187500.00, 187500.00, 187500.00, 0.00, 0
141, 187500.00, -118991.48, 187500.00, 187500.00, 187500.00, 187500.00, 187500.00, 0.00, 0
142, 187500.00, -119047.69, 187500.00, 187500.00, 187500.00, 187500.00, 187500.00, 0.00, 0
143, 187500.00, -118019.48, 187500.00, 187500.00, 187500.00, 187500.00, 187500.00, 0.00, 0
144, 187500.00, -117942.95, 187500.00, 187500.00, 187500.00, 187500.00, 187500.00, 0.00, 0
145, 187500.00, -118854.75, 187500.00, 187500.00, 187500.00, 187500.00, 187500.00, 0.00, 0
146, 187500.00, -119209.63, 187500.00, 187500.00, 187500.00, 187500.00, 187500.00, 0.00, 0
147, 187500.00, -118192.27, 187500.00, 187500.00, 187500.00, 187500.00, 187500.00, 0.00, 0
148, 187500.00, -117852.07, 187500.00, 187500.00, 187500.00, 187500.00, 187500.00, 0.00, 0
149, 187500.00, -118615.92, 187500.00, 187500.00, 187500.00, 187500.00, 187500.00, 0.00, 0
150, 187500.00, -119266.02, 187500.00, 187500.00, 187500.00, 187500.00, 187500.00, 0.00, 0
151, 187500.00, -118378.43, 187500.00, 187500.00, 187500.00, 187500.00, 187500.00, 0.00, 0
152, 187500.00, -117840.12, 187500.00, 187500.00, 187500.00, 187500.00, 187500.00, 0.00, 0
153, 187500.00, -118452.53, 187500.00, 187500.00, 187500.00, 187500.00, 187500.00, 0.00, 0
154, 187500.00, -119299.75, 187500.00, 187500.00, 187500.00, 187500.00, 187500.00, 0.00, 0
155, 187500.00, -118577.41, 187500.00, 187500.00, 187500.00, 187500.00, 187500.00, 0.00, 0
156, 187500.00, -117846.57, 187500.00, 187500.00, 187500.00, 187500.00, 187500.00, 0.00, 0
157, 187500.00, -118271.05, 187500.00, 187500.00, 187500.00, 187500.00, 187500.00, 0.00, 0
158, 187500.00, -119226.70, 187500.00, 187500.00, 187500.00, 187500.00, 187500.00, 0.00, 0
159, 187500.00, -118750.99, 187500.00, 187500.00, 187500.00, 187500.00, 187500.00, 0.00, 0
160, 187500.00, -117865.80, 187500.00, 187500.00, 187500.00, 187500.00, 187500.00, 0.00, 0
161, 187500.00, -118089.96, 187500.00, 187500.00, 187500.00, 187500.00, 187500.00, 0.00, 0
162, 187500.00, -119086.27, 187500.00, 187500.00, 187500.00, 187500.00, 187500.00, 0.00, 0
163, 187500.00, -118952.54, 187500.00, 187500.00, 187500.00, 187500.00, 187500.00, 0.00, 0
164, 187500.00, -117986.30, 187500.00, 187500.00, 187500.00, 187500.00, 187500.00, 0.00, 0
165, 187500.00, -117991.37, 187500.00, 187500.00, 187500.00, 187500.00, 187500.00, 0.00, 0
166, 187500.00, -118972.09, 187500.00, 187500.00, 187500.00, 187500.00, 187500.00, 0.00, 0
167, 187500.00, -119133.16, 187500.00, 187500.00, 187500.00, 187500.00, 187500.00, 0.00, 0
168, 187500.00, -118085.00, 187500.00, 187500.00, 187500.00, 187500.00, 187500.00, 0.00, 0
169, 187500.00, -117873.28, 187500.00, 187500.00, 187500.00, 187500.00, 187500.00, 0.00, 0
170, 187500.00, -118744.47, 187500.00, 187500.00, 187500.00, 187500.00, 187500.00, 0.00, 0
171, 187500.00, -119225.66, 187500.00, 187500.00, 187500.00, 187500.00, 187500.00, 0.00, 0
172, 187500.00, -118237.41, 187500.00, 187500.00, 187500.00, 187500.00, 187500.00, 0.00, 0
173, 187500.00, -117837.09, 187500.00, 187500.00, 187500.00, 187500.00, 187500.00, 0.00, 0
174, 187500.00, -118588.38, 187500.00, 187500.00, 187500.00, 187500.00, 187500.00, 0.00, 0
175, 187500.00, -119315.20, 187500.00, 187500.00, 187500.00, 187500.00, 187500.00, 0.00, 0
176, 187500.00, -118442.91, 187500.00, 187500.00, 187500.00, 187500.00, 187500.00, 0.00, 0
177, 187500.00, -117836.98, 187500.00, 187500.00, 187500.00, 187500.00, 187500.00, 0.00, 0
178, 187500.00, -118394.70, 187500.00, 187500.00, 187500.00, 187500.00, 187500.00, 0.00, 0
179, 187500.00, -119284.30, 187500.00, 187500.00, 187500.00, 187500.00, 187500.00, 0.00, 0
180, 187500.00, -118619.95, 187500.00, 187500.00, 187500.00, 187500.00, 187500.00, 0.00, 0
181, 187500.00, -117829.72, 187500.00, 187500.00, 187500.00, 187500.00, 187500.00, 0.00, 0
182, 187500.00, -118205.27, 187500.00, 187500.00, 187500.00, 187500.00, 187500.00, 0.00, 0
183, 187500.00, -119206.59, 187500.00, 187500.00, 187500.00, 187500.00, 187500.00, 0.00, 0
184, 187500.00, -118825.80, 187500.00, 187500.00, 187500.00, 187500.00, 187500.00, 0.00, 0
185, 187500.00, -117914.27, 187500.00, 187500.00, 187500.00, 187500.00, 187500.00, 0.00, 0
186, 187500.00, -118083.32, 187500.00, 187500.00, 187500.00, 187500.00, 187500.00, 0.00, 0
187, 187500.00, -119067.02, 187500.00, 187500.00, 187500.00, 187500.00, 187500.00, 0.00, 0
188, 187500.00, -119018.25, 187500.00, 187500.00, 187500.00, 187500.00, 187500.00, 0.00, 0
189, 187500.00, -117997.63, 187500.00, 187500.00, 187500.00, 187500.00, 187500.00, 0.00, 0
190, 187500.00, -117963.25, 187500.00, 187500.00, 187500.00, 187500.00, 187500.00, 0.00, 0
191, 187500.00, -118920.48, 187500.00, 187500.00, 187500.00, 187500.00, 187500.00, 0.00, 0
192, 187500.00, -119149.16, 187500.00, 187500.00, 187500.00, 187500.00, 187500.00, 0.00, 0
193, 187500.00, -118105.01, 187500.00, 187500.00, 187500.00, 187500.00, 187500.00, 0.00, 0
194, 187500.00, -117880.77, 187500.00, 187500.00, 187500.00, 187500.00, 187500.00, 0.00, 0
195, 187500.00, -118720.98, 187500.00, 187500.00, 187500.00, 187500.00, 187500.00, 0.00, 0
196, 187500.00, -119255.18, 187500.00, 187500.00, 187500.00, 187500.00, 187500.00, 0.00, 0
197, 187500.00, -118293.07, 187500.00, 187500.00, 187500.00, 187500.00, 187500.00, 0.00, 0
198, 187500.00, -117841.86, 187500.00, 187500.00, 187500.00, 187500.00, 187500.00, 0.00, 0
199, 187500.00, -118539.79, 187500.00, 187500.00, 187500.00, 187500.00, 187500.00, 0.00, 0
200, 187500.00, -119302.03, 187500.00, 187500.00, 187500.00, 187500.00, 187500.00, 0.00, 0
201, 187500.00, -118477.43, 187500.00, 187500.00, 187500.00, 187500.00, 187500.00, 0.00, 0
202, 187500.00, -117812.06, 187500.00, 187500.00, 187500.00, 187500.00, 187500.00, 0.00, 0
203, 187500.00, -118315.98, 187500.00, 187500.00, 187500.00, 187500.00, 187500.00, 0.00, 0
204, 187500.00, -119258.71, 187500.00, 187500.00, 187500.00, 187500.00, 187500.00, 0.00, 0
205, 187500.00, -118693.95, 187500.00, 187500.00, 187500.00, 187500.00, 187500.00, 0.00, 0
206, 187500.00, -117866.80, 187500.00, 187500.00, 187500.00, 187500.00, 187500.00, 0.00, 0
207, 187500.00, -118159.03, 187500.00, 187500.00, 187500.00, 187500.00, 187500.00, 0.00, 0
208, 187500.00, -119149.97, 187500.00, 187500.00, 187500.00, 187500.00, 187500.00, 0.00, 0
209, 187500.00, -118894.58, 187500.00, 187500.00, 187500.00, 187500.00, 187500.00, 0.00, 0
210, 187500.00, -117934.37, 187500.00, 187500.00, 187500.00, 187500.00, 187500.00, 0.00, 0
211, 187500.00, -118036.59, 187500.00, 187500.00, 187500.00, 187500.00, 187500.00, 0.00, 0
212, 187500.00, -119022.34, 187500.00, 187500.00, 187500.00, 187500.00, 187500.00, 0.00, 0
213, 187500.00, -119054.87, 187500.00, 187500.00, 187500.00, 187500.00, 187500.00, 0.00, 0
214, 187500.00, -118031.73, 187500.00, 187500.00, 187500.00, 187500.00, 187500.00, 0.00, 0
215, 187500.00, -117941.45, 187500.00, 187500.00, 187500.00, 187500.00, 187500.00, 0.00, 0
216, 187500.00, -118837.38, 187500.00, 187500.00, 187500.00, 187500.00, 187500.00, 0.00, 0
217, 187500.00, -119178.65, 187500.00, 187500.00, 187500.00, 187500.00, 187500.00, 0.00, 0
218, 187500.00, -118153.55, 187500.00, 187500.00, 187500.00, 187500.00, 187500.00, 0.00, 0
219, 187500.00, -117856.03, 187500.00, 187500.00, 187500.00, 187500.00, 187500.00, 0.00, 0
220, 187500.00, -118648.27, 187500.00, 187500.00, 187500.00, 187500.00, 187500.00, 0.00, 0
221, 187500.00, -119272.23, 187500.00, 187500.00, 187500.00, 187500.00, 187500.00, 0.00, 0
222, 187500.00, -118370.43, 187500.00, 187500.00, 187500.00, 187500.00, 187500.00, 0.00, 0
223, 187500.00, -117838.19, 187500.00, 187500.00, 187500.00, 187500.00, 187500.00, 0.00, 0
224, 187500.00, -118459.15, 187500.00, 187500.00, 187500.00, 187500.00, 187500.00, 0.00, 0
225, 187500.00, -119292.87, 187500.00, 187500.00, 187500.00, 187500.00, 187500.00, 0.00, 0
226, 187500.00, -118541.42, 187500.00, 187500.00, 187500.00, 187500.00, 187500.00, 0.00, 0
227, 187500.00, -117836.42, 187500.00, 187500.00, 187500.00, 187500.00, 187500.00, 0.00, 0
228, 187500.00, -118294.28, 187500.00, 187500.00, 187500.00, 187500.00, 187500.00, 0.00, 0
229, 187500.00, -119249.39, 187500.00, 187500.00, 187500.00, 187500.00, 187500.00, 0.00, 0
230, 187500.00, -118756.78, 187500.00, 187500.00, 187500.00, 187500.00, 187500.00, 0.00, 0
231, 187500.00, -117872.95, 187500.00, 187500.00, 187500.00, 187500.00, 187500.00, 0.00, 0
232, 187500.00, -118116.41, 187500.00, 187500.00, 187500.00, 187500.00, 187500.00, 0.00, 0
233, 187500.00, -119116.33, 187500.00, 187500.00, 187500.00, 187500.00, 187500.00, 0.00, 0
234, 187500.00, -118933.65, 187500.00, 187500.00, 187500.00, 187500.00, 187500.00, 0.00, 0
235, 187500.00, -117955.47, 187500.00, 187500.00, 187500.00, 187500.00, 187500.00, 0.00, 0
236, 187500.00, -118000.91, 187500.00, 187500.00, 187500.00, 187500.00, 187500.00, 0.00, 0
237, 187500.00, -118970.44, 187500.00, 187500.00, 187500.00, 187500.00, 187500.00, 0.00, 0
238, 187500.00, -119109.09, 187500.00, 187500.00, 187500.00, 187500.00, 187500.00, 0.00, 0
239, 187500.00, -118073.02, 187500.00, 187500.00, 187500.00, 187500.00, 187500.00, 0.00, 0
240, 187500.00, -117920.78, 187500.00, 187500.00, 187500.00, 187500.00, 187500.00, 0.00, 0
241, 187500.00, -118788.56, 187500.00, 187500.00, 187500.00, 187500.00, 187500.00, 0.00, 0
242, 187500.00, -119207.13, 187500.00, 187500.00, 187500.00, 187500.00, 187500.00, 0.00, 0
243, 187500.00, -118222.91, 187500.00, 187500.00, 187500.00, 187500.00, 187500.00, 0.00, 0
244, 187500.00, -117857.86, 187500.00, 187500.00, 187500.00, 187500.00, 187500.00, 0.00, 0
245, 187500.00, -118593.93, 187500.00, 187500.00, 187500.00, 187500.00, 187500.00, 0.00, 0
246, 187500.00, -119257.46, 187500.00, 187500.00, 187500.00, 187500.00, 187500.00, 0.00, 0
247, 187500.00, -118408.34, 187500.00, 187500.00, 187500.00, 187500.00, 187500.00, 0.00, 0
248, 187500.00, -117860.32, 187500.00, 187500.00, 187500.00, 187500.00, 187500.00, 0.00, 0
249, 187500.00, -118416.97, 187500.00, 187500.00, 187500.00, 187500.00, 187500.00, 0.00, 0
250, 187500.00, -119293.09, 187500.00, 187500.00, 187500.00, 187500.00, 187500.00, 0.00, 0
251, 187500.00, -118621.17, 187500.00, 187500.00, 187500.00, 187500.00, 187500.00, 0.00, 0
252, 187500.00, -117834.28, 187500.00, 187500.00, 187500.00, 187500.00, 187500.00, 0.00, 0
253, 187500.00, -118216.96, 187500.00, 187500.00, 187500.00, 187500.00, 187500.00, 0.00, 0
254, 187500.00, -119210.92, 187500.00, 187500.00, 187500.00, 187500.00, 187500.00, 0.00, 0
255, 187500.00, -118825.87, 187500.00, 187500.00, 187500.00, 187500.00, 187500.00, 0.00, 0
0, 187500.00, -117891.23, 187500.00, 187500.00, 187500.00, 187500.00, 187500.00, 0.00, 0
1, 187500.00, -118064.75, 187500.00, 187500.00, 187500.00, 187500.00, 187500.00, 0.00, 0
2, 187500.00, -119087.54, 187500.00, 187500.00, 187500.00, 187500.00, 187500.00, 0.00, 0
3, 187500.00, -118993.62, 187500.00, 187500.00, 187500.00, 187500.00, 187500.00, 0.00, 0
4, 187500.00, -117948.25, 187500.00, 187500.00, 187500.00, 187500.00, 187500.00, 0.00, 0
5, 187500.00, -117941.01, 187500.00, 187500.00, 187500.00, 187500.00, 187500.00, 0.00, 0
6, 187500.00, -118926.70, 187500.00, 187500.00, 187500.00, 187500.00, 187500.00, 0.00, 0
7, 187500.00, -119176.41, 187500.00, 187500.00, 187500.00, 187500.00, 187500.00, 0.00, 0
8, 187500.00, -118136.84, 187500.00, 187500.00, 187500.00, 187500.00, 187500.00, 0.00, 0
9, 187500.00, -117889.40, 187500.00, 187500.00, 187500.00, 187500.00, 187500.00, 0.00, 0
10, 187500.00, -118731.70, 187500.00, 187500.00, 187500.00, 187500.00, 187500.00, 0.00, 0
11, 187500.00, -119257.33, 187500.00, 187500.00, 187500.00, 187500.00, 187500.00, 0.00, 0
12, 187500.00, -118268.20, 187500.00, 187500.00, 187500.00, 187500.00, 187500.00, 0.00, 0
13, 187500.00, -117819.48, 187500.00, 187500.00, 187500.00, 187500.00, 187500.00, 0.00, 0
14, 187500.00, -118526.80, 187500.00, 187500.00, 187500.00, 187500.00, 187500.00, 0.00, 0
15, 187500.00, -119301.90, 187500.00, 187500.00, 187500.00, 187500.00, 187500.00, 0.00, 0
16, 187500.00, -118480.36, 187500.00, 187500.00, 187500.00, 187500.00, 187500.00, 0.00, 0
17, 187500.00, -117836.85, 187500.00, 187500.00, 187500.00, 187500.00, 187500.00, 0.00, 0
18, 187500.00, -118343.85, 187500.00, 187500.00, 187500.00, 187500.00, 187500.00, 0.00, 0
19, 187500.00, -119255.47, 187500.00, 187500.00, 187500.00, 187500.00, 187500.00, 0.00, 0
20, 187500.00, -118664.00, 187500.00, 187500.00, 187500.00, 187500.00, 187500.00, 0.00, 0
21, 187500.00, -117831.30, 187500.00, 187500.00, 187500.00, 187500.00, 187500.00, 0.00, 0
22, 187500.00, -118177.55, 187500.00, 187500.00, 187500.00, 187500.00, 187500.00, 0.00, 0
23, 187500.00, -119191.52, 187500.00, 187500.00, 187500.00, 187500.00, 187500.00, 0.00, 0
24, 187500.00, -118887.07, 187500.00, 187500.00, 187500.00, 187500.00, 187500.00, 0.00, 0
25, 187500.00, -117914.19, 187500.00, 187500.00, 187500.00, 187500.00, 187500.00, 0.00, 0
26, 187500.00, -118021.37, 187500.00, 187500.00, 187500.00, 187500.00, 187500.00, 0.00, 0
27, 187500.00, -119021.02, 187500.00, 187500.00, 187500.00, 187500.00, 187500.00, 0.00, 0
28, 187500.00, -119046.84, 187500.00, 187500.00, 187500.00, 187500.00, 187500.00, 0.00, 0
29, 187500.00, -118033.12, 187500.00, 187500.00, 187500.00, 187500.00, 187500.00, 0.00, 0
30, 187500.00, -117944.25, 187500.00, 187500.00, 187500.00, 187500.00, 187500.00, 0.00, 0
31, 187500.00, -118861.72, 187500.00, 187500.00, 187500.00, 187500.00, 187500.00, 0.00, 0
32, 187500.00, -119183.72, 187500.00, 187500.00, 187500.00, 187500.00, 187500.00, 0.00, 0
33, 187500.00, -118154.05, 187500.00, 187500.00, 187500.00, 187500.00, 187500.00, 0.00, 0
34, 187500.00, -117863.38, 187500.00, 187500.00, 187500.00, 187500.00, 187500.00, 0.00, 0
35, 187500.00, -118661.14, 187500.00, 187500.00, 187500.00, 187500.00, 187500.00, 0.00, 0
36, 187500.00, -119255.02, 187500.00, 187500.00, 187500.00, 187500.00, 187500.00, 0.00, 0
37, 187500.00, -118319.27, 187500.00, 187500.00, 187500.00, 187500.00, 187500.00, 0.00, 0
38, 187500.00, -117806.97, 187500.00, 187500.00, 187500.00, 187500.00, 187500.00, 0.00, 0
39, 187500.00, -118471.30, 187500.00, 187500.00, 187500.00, 187500.00, 187500.00, 0.00, 0
40, 187500.00, -119296.82, 187500.00, 187500.00, 187500.00, 187500.00, 187500.00, 0.00, 0
41, 187500.00, -118517.80, 187500.00, 187500.00, 187500.00, 187500.00, 187500.00, 0.00, 0
42, 187500.00, -117821.79, 187500.00, 187500.00, 187500.00, 187500.00, 187500.00, 0.00, 0
43, 187500.00, -118292.11, 187500.00, 187500.00, 187500.00, 187500.00, 187500.00, 0.00, 0
44, 187500.00, -119265.41, 187500.00, 187500.00, 187500.00, 187500.00, 187500.00, 0.00, 0
45, 187500.00, -118765.81, 187500.00, 187500.00, 187500.00, 187500.00, 187500.00, 0.00, 0
46, 187500.00, -117890.78, 187500.00, 187500.00, 187500.00, 187500.00, 187500.00, 0.00, 0
47, 187500.00, -118133.19, 187500.00, 187500.00, 187500.00, 187500.00, 187500.00, 0.00, 0
48, 187500.00, -119132.76, 187500.00, 187500.00, 187500.00, 187500.00, 187500.00, 0.00, 0
49, 187500.00, -118941.02, 187500.00, 187500.00, 187500.00, 187500.00, 187500.00, 0.00, 0
50, 187500.00, -117963.95, 187500.00, 187500.00, 187500.00, 187500.00, 187500.00, 0.00, 0
51, 187500.00, -118003.86, 187500.00, 187500.00, 187500.00, 187500.00, 187500.00, 0.00, 0
52, 187500.00, -118982.96, 187500.00, 187500.00, 187500.00, 187500.00, 187500.00, 0.00, 0
53, 187500.00, -119103.99, 187500.00, 187500.00, 187500.00, 187500.00, 187500.00, 0.00, 0
54, 187500.00, -118062.31, 187500.00, 187500.00, 187500.00, 187500.00, 187500.00, 0.00, 0
55, 187500.00, -117899.03, 187500.00, 187500.00, 187500.00, 187500.00, 187500.00, 0.00, 0
56, 187500.00, -118793.91, 187500.00, 187500.00, 187500.00, 187500.00, 187500.00, 0.00, 0
57, 187500.00, -119213.96, 187500.00, 187500.00, 187500.00, 187500.00, 187500.00, 0.00, 0
58, 187500.00, -118213.12, 187500.00, 187500.00, 187500.00, 187500.00, 187500.00, 0.00, 0
59, 187500.00, -117848.63, 187500.00, 187500.00, 187500.00, 187500.00, 187500.00, 0.00, 0
60, 187500.00, -118595.02, 187500.00, 187500.00, 187500.00, 187500.00, 187500.00, 0.00, 0
61, 187500.00, -119264.88, 187500.00, 187500.00, 187500.00, 187500.00, 187500.00, 0.00, 0
62, 187500.00, -118354.18, 187500.00, 187500.00, 187500.00, 187500.00, 187500.00, 0.00, 0
63, 187500.00, -117799.34, 187500.00, 187500.00, 187500.00, 187500.00, 187500.00, 0.00, 0
64, 187500.00, -118424.03, 187500.00, 187500.00, 187500.00, 187500.00, 187500.00, 0.00, 0
65, 187500.00, -119298.72, 187500.00, 187500.00, 187500.00, 187500.00, 187500.00, 0.00, 0
66, 187500.00, -118598.02, 187500.00, 187500.00, 187500.00, 187500.00, 187500.00, 0.00, 0
67, 187500.00, -117830.55, 187500.00, 187500.00, 187500.00, 187500.00, 187500.00, 0.00, 0
68, 187500.00, -118215.60, 187500.00, 187500.00, 187500.00, 187500.00, 187500.00, 0.00, 0
69, 187500.00, -119200.71, 187500.00, 187500.00, 187500.00, 187500.00, 187500.00, 0.00, 0
70, 187500.00, -118798.18, 187500.00, 187500.00, 187500.00, 187500.00, 187500.00, 0.00, 0
71, 187500.00, -117917.45, 187500.00, 187500.00, 187500.00, 187500.00, 187500.00, 0.00, 0
72, 187500.00, -118114.30, 187500.00, 187500.00, 187500.00, 187500.00, 187500.00, 0.00, 0
73, 187500.00, -119103.21, 187500.00, 187500.00, 187500.00, 187500.00, 187500.00, 0.00, 0
74, 187500.00, -118970.22, 187500.00, 187500.00, 187500.00, 187500.00, 187500.00, 0.00, 0
75, 187500.00, -117957.23, 187500.00, 187500.00, 187500.00, 187500.00, 187500.00, 0.00, 0
76, 187500.00, -117940.70, 187500.00, 187500.00, 187500.00, 187500.00, 187500.00, 0.00, 0
77, 187500.00, -118909.65, 187500.00, 187500.00, 187500.00, 187500.00, 187500.00, 0.00, 0
78, 187500.00, -119143.78, 187500.00, 187500.00, 187500.00, 187500.00, 187500.00, 0.00, 0
79, 187500.00, -118107.42, 187500.00, 187500.00, 187500.00, 187500.00, 187500.00, 0.00, 0
80, 187500.00, -117882.13, 187500.00, 187500.00, 187500.00, 187500.00, 187500.00, 0.00, 0
81, 187500.00, -118727.01, 187500.00, 187500.00, 187500.00, 187500.00, 187500.00, 0.00, 0
82, 187500.00, -119229.74, 187500.00, 187500.00, 187500.00, 187500.00, 187500.00, 0.00, 0
83, 187500.00, -118240.41, 187500.00, 187500.00, 187500.00, 187500.00, 187500.00, 0.00, 0
84, 187500.00, -117801.38, 187500.00, 187500.00, 187500.00, 187500.00, 187500.00, 0.00, 0
85, 187500.00, -118512.99, 187500.00, 187500.00, 187500.00, 187500.00, 187500.00, 0.00, 0
86, 187500.00, -119270.94, 187500.00, 187500.00, 187500.00, 187500.00, 187500.00, 0.00, 0
87, 187500.00, -118437.51, 187500.00, 187500.00, 187500.00, 187500.00, 187500.00, 0.00, 0
88, 187500.00, -117811.33, 187500.00, 187500.00, 187500.00, 187500.00, 187500.00, 0.00, 0
89, 187500.00, -118365.63, 187500.00, 187500.00, 187500.00, 187500.00, 187500.00, 0.00, 0
90, 187500.00, -119282.13, 187500.00, 187500.00, 187500.00, 187500.00, 187500.00, 0.00, 0
91, 187500.00, -118663.75, 187500.00, 187500.00, 187500.00, 187500.00, 187500.00, 0.00, 0
92, 187500.00, -117857.10, 187500.00, 187500.00, 187500.00, 187500.00, 187500.00, 0.00, 0
93, 187500.00, -118177.76, 187500.00, 187500.00, 187500.00, 187500.00, 187500.00, 0.00, 0
94, 187500.00, -119165.02, 187500.00, 187500.00, 187500.00, 187500.00, 187500.00, 0.00, 0
95, 187500.00, -118839.64, 187500.00, 187500.00, 187500.00, 187500.00, 187500.00, 0.00, 0
96, 187500.00, -117886.59, 187500.00, 187500.00, 187500.00, 187500.00, 187500.00, 0.00, 0
97, 187500.00, -118051.96, 187500.00, 187500.00, 187500.00, 187500.00, 187500.00, 0.00, 0
98, 187500.00, -119052.45, 187500.00, 187500.00, 187500.00, 187500.00, 187500.00, 0.00, 0
99, 187500.00, -119013.02, 187500.00, 187500.00, 187500.00, 187500.00, 187500.00, 0.00, 0
100, 187500.00, -117991.88, 187500.00, 187500.00, 187500.00, 187500.00, 187500.00, 0.00, 0
101, 187500.00, -117943.00, 187500.00, 187500.00, 187500.00, 187500.00, 187500.00, 0.00, 0
102, 187500.00, -118881.23, 187500.00, 187500.00, 187500.00, 187500.00, 187500.00, 0.00, 0
103, 187500.00, -119168.88, 187500.00, 187500.00, 187500.00, 187500.00, 187500.00, 0.00, 0
104, 187500.00, -118138.15, 187500.00, 187500.00, 187500.00, 187500.00, 187500.00, 0.00, 0
105, 187500.00, -117856.59, 187500.00, 187500.00, 187500.00, 187500.00, 187500.00, 0.00, 0
106, 187500.00, -118664.18, 187500.00, 187500.00, 187500.00, 187500.00, 187500.00, 0.00, 0
107, 187500.00, -119254.55, 187500.00, 187500.00, 187500.00, 187500.00, 187500.00, 0.00, 0
108, 187500.00, -118315.36, 187500.00, 187500.00, 187500.00, 187500.00, 187500.00, 0.00, 0
109, 187500.00, -117825.23, 187500.00, 187500.00, 187500.00, 187500.00, 187500.00, 0.00, 0
110, 187500.00, -118473.12, 187500.00, 187500.00, 187500.00, 187500.00, 187500.00, 0.00, 0
111, 187500.00, -119271.74, 187500.00, 187500.00, 187500.00, 187500.00, 187500.00, 0.00, 0
112, 187500.00, -118506.24, 187500.00, 187500.00, 187500.00, 187500.00, 187500.00, 0.00, 0
113, 187500.00, -117828.36, 187500.00, 187500.00, 187500.00, 187500.00, 187500.00, 0.00, 0
114, 187500.00, -118319.00, 187500.00, 187500.00, 187500.00, 187500.00, 187500.00, 0.00, 0
115, 187500.00, -119261.38, 187500.00, 187500.00, 187500.00, 187500.00, 187500.00, 0.00, 0
116, 187500.00, -118726.70, 187500.00, 187500.00, 187500.00, 187500.00, 187500.00, 0.00, 0
117, 187500.00, -117862.98, 187500.00, 187500.00, 187500.00, 187500.00, 187500.00, 0.00, 0
118, 187500.00, -118126.93, 187500.00, 187500.00, 187500.00, 187500.00, 187500.00, 0.00, 0
119, 187500.00, -119126.21, 187500.00, 187500.00, 187500.00, 187500.00, 187500.00, 0.00, 0
120, 187500.00, -118893.24, 187500.00, 187500.00, 187500.00, 187500.00, 187500.00, 0.00, 0
121, 187500.00, -117915.17, 187500.00, 187500.00, 187500.00, 187500.00, 187500.00, 0.00, 0
122, 187500.00, -117985.35, 187500.00, 187500.00, 187500.00, 187500.00, 187500.00, 0.00, 0
123, 187500.00, -118971.96, 187500.00, 187500.00, 187500.00, 187500.00, 187500.00, 0.00, 0
124, 187500.00, -119039.73, 187500.00, 187500.00, 187500.00, 187500.00, 187500.00, 0.00, 0
125, 187500.00, -117998.01, 187500.00, 187500.00, 187500.00, 187500.00, 187500.00, 0.00, 0
126, 187500.00, -117910.99, 187500.00, 187500.00, 187500.00, 187500.00, 187500.00, 0.00, 0
127, 187500.00, -118816.88, 187500.00, 187500.00, 187500.00, 187500.00, 187500.00, 0.00, 0
128, 187500.00, -119181.17, 187500.00, 187500.00, 187500.00, 187500.00, 187500.00, 0.00, 0
129, 187500.00, -118186.19, 187500.00, 187500.00, 187500.00, 187500.00, 187500.00, 0.00, 0
130, 187500.00, -117856.20, 187500.00, 187500.00, 187500.00, 187500.00, 187500.00, 0.00, 0
131, 187500.00, -118619.12, 187500.00, 187500.00, 187500.00, 187500.00, 187500.00, 0.00, 0
132, 187500.00, -119268.84, 187500.00, 187500.00, 187500.00, 187500.00, 187500.00, 0.00, 0
133, 187500.00, -118357.89, 187500.00, 187500.00, 187500.00, 187500.00, 187500.00, 0.00, 0
134, 187500.00, -117797.98, 187500.00, 187500.00, 187500.00, 187500.00, 187500.00, 0.00, 0
135, 187500.00, -118411.38, 187500.00, 187500.00, 187500.00, 187500.00, 187500.00, 0.00, 0
136, 187500.00, -119283.05, 187500.00, 187500.00, 187500.00, 187500.00, 187500.00, 0.00, 0
137, 187500.00, -118560.17, 187500.00, 187500.00, 187500.00, 187500.00, 187500.00, 0.00, 0
138, 187500.00, -117820.60, 187500.00, 187500.00, 187500.00, 187500.00, 187500.00, 0.00, 0
139, 187500.00, -118260.55, 187500.00, 187500.00, 187500.00, 187500.00, 187500.00, 0.00, 0
140, 187500.00, -119221.20, 187500.00, 187500.00, 187500.00, 187500.00, 187500.00, 0.00, 0
141, 187500.00, -118765.48, 187500.00, 187500.00, 187500.00, 187500.00, 187500.00, 0.00, 0
142, 187500.00, -117868.03, 187500.00, 187500.00, 187500.00, 187500.00, 187500.00, 0.00, 0
143, 187500.00, -118087.73, 187500.00, 187500.00, 187500.00, 187500.00, 187500.00, 0.00, 0
144, 187500.00, -119099.66, 187500.00, 187500.00, 187500.00, 187500.00, 187500.00, 0.00, 0
145, 187500.00, -118953.30, 187500.00, 187500.00, 187500.00, 187500.00, 187500.00, 0.00, 0
146, 187500.00, -117964.84, 187500.00, 187500.00, 187500.00, 187500.00, 187500.00, 0.00, 0
147, 187500.00, -117985.89, 187500.00, 187500.00, 187500.00, 187500.00, 187500.00, 0.00, 0
148, 187500.00, -118946.23, 187500.00, 187500.00, 187500.00, 187500.00, 187500.00, 0.00, 0
149, 187500.00, -119121.98, 187500.00, 187500.00, 187500.00, 187500.00, 187500.00, 0.00, 0
150, 187500.00, -118091.03, 187500.00, 187500.00, 187500.00, 187500.00, 187500.00, 0.00, 0
151, 187500.00, -117898.09, 187500.00, 187500.00, 187500.00, 187500.00, 187500.00, 0.00, 0
152, 187500.00, -118764.42, 187500.00, 187500.00, 187500.00, 187500.00, 187500.00, 0.00, 0
153, 187500.00, -119221.41, 187500.00, 187500.00, 187500.00, 187500.00, 187500.00, 0.00, 0
154, 187500.00, -118227.07, 187500.00, 187500.00, 187500.00, 187500.00, 187500.00, 0.00, 0
155, 187500.00, -117842.28, 187500.00, 187500.00, 187500.00, 187500.00, 187500.00, 0.00, 0
156, 187500.00, -118568.55, 187500.00, 187500.00, 187500.00, 187500.00, 187500.00, 0.00, 0
157, 187500.00, -119282.00, 187500.00, 187500.00, 187500.00, 187500.00, 187500.00, 0.00, 0
158, 187500.00, -118420.32, 187500.00, 187500.00, 187500.00, 187500.00, 187500.00, 0.00, 0
159, 187500.00, -117794.12, 187500.00, 187500.00, 187500.00, 187500.00, 187500.00, 0.00, 0
160, 187500.00, -118354.78, 187500.00, 187500.00, 187500.00, 187500.00, 187500.00, 0.00, 0
161, 187500.00, -119272.13, 187500.00, 187500.00, 187500.00, 187500.00, 187500.00, 0.00, 0
162, 187500.00, -118624.86, 187500.00, 187500.00, 187500.00, 187500.00, 187500.00, 0.00, 0
163, 187500.00, -117809.16, 187500.00, 187500.00, 187500.00, 187500.00, 187500.00, 0.00, 0
164, 187500.00, -118173.58, 187500.00, 187500.00, 187500.00, 187500.00, 187500.00, 0.00, 0
165, 187500.00, -119193.94, 187500.00, 187500.00, 187500.00, 187500.00, 187500.00, 0.00, 0
166, 187500.00, -118820.84, 187500.00, 187500.00, 187500.00, 187500.00, 187500.00, 0.00, 0
167, 187500.00, -117874.58, 187500.00, 187500.00, 187500.00, 187500.00, 187500.00, 0.00, 0
168, 187500.00, -118054.40, 187500.00, 187500.00, 187500.00, 187500.00, 187500.00, 0.00, 0
169, 187500.00, -119062.80, 187500.00, 187500.00, 187500.00, 187500.00, 187500.00, 0.00, 0
170, 187500.00, -119004.48, 187500.00, 187500.00, 187500.00, 187500.00, 187500.00, 0.00, 0
171, 187500.00, -117978.29, 187500.00, 187500.00, 187500.00, 187500.00, 187500.00, 0.00, 0
172, 187500.00, -117922.68, 187500.00, 187500.00, 187500.00, 187500.00, 187500.00, 0.00, 0
173, 187500.00, -118861.74, 187500.00, 187500.00, 187500.00, 187500.00, 187500.00, 0.00, 0
174, 187500.00, -119124.94, 187500.00, 187500.00, 187500.00, 187500.00, 187500.00, 0.00, 0
175, 187500.00, -118112.41, 187500.00, 187500.00, 187500.00, 187500.00, 187500.00, 0.00, 0
176, 187500.00, -117874.31, 187500.00, 187500.00, 187500.00, 187500.00, 187500.00, 0.00, 0
177, 187500.00, -118690.13, 187500.00, 187500.00, 187500.00, 187500.00, 187500.00, 0.00, 0
178, 187500.00, -119238.88, 187500.00, 187500.00, 187500.00, 187500.00, 187500.00, 0.00, 0
179, 187500.00, -118295.80, 187500.00, 187500.00, 187500.00, 187500.00, 187500.00, 0.00, 0
180, 187500.00, -117809.70, 187500.00, 187500.00, 187500.00, 187500.00, 187500.00, 0.00, 0
181, 187500.00, -118477.54, 187500.00, 187500.00, 187500.00, 187500.00, 187500.00, 0.00, 0
182, 187500.00, -119263.45, 187500.00, 187500.00, 187500.00, 187500.00, 187500.00, 0.00, 0
183, 187500.00, -118477.30, 187500.00, 187500.00, 187500.00, 187500.00, 187500.00, 0.00, 0
184, 187500.00, -117830.55, 187500.00, 187500.00, 187500.00, 187500.00, 187500.00, 0.00, 0
185, 187500.00, -118321.81, 187500.00, 187500.00, 187500.00, 187500.00, 187500.00, 0.00, 0
186, 187500.00, -119245.55, 187500.00, 187500.00, 187500.00, 187500.00, 187500.00, 0.00, 0
187, 187500.00, -118680.09, 187500.00, 187500.00, 187500.00, 187500.00, 187500.00, 0.00, 0
188, 187500.00, -117844.56, 187500.00, 187500.00, 187500.00, 187500.00, 187500.00, 0.00, 0
189, 187500.00, -118144.57, 187500.00, 187500.00, 187500.00, 187500.00, 187500.00, 0.00, 0
190, 187500.00, -119131.09, 187500.00, 187500.00, 187500.00, 187500.00, 187500.00, 0.00, 0
191, 187500.00, -118874.22, 187500.00, 187500.00, 187500.00, 187500.00, 187500.00, 0.00, 0
192, 187500.00, -117919.24, 187500.00, 187500.00, 187500.00, 187500.00, 187500.00, 0.00, 0
193, 187500.00, -118007.13, 187500.00, 187500.00, 187500.00, 187500.00, 187500.00, 0.00, 0
194, 187500.00, -118980.63, 187500.00, 187500.00, 187500.00, 187500.00, 187500.00, 0.00, 0
195, 187500.00, -119036.80, 187500.00, 187500.00, 187500.00, 187500.00, 187500.00, 0.00, 0
196, 187500.00, -118020.31, 187500.00, 187500.00, 187500.00, 187500.00, 187500.00, 0.00, 0
197, 187500.00, -117919.82, 187500.00, 187500.00, 187500.00, 187500.00, 187500.00, 0.00, 0
198, 187500.00, -118818.70, 187500.00, 187500.00, 187500.00, 187500.00, 187500.00, 0.00, 0
199, 187500.00, -119176.03, 187500.00, 187500.00, 187500.00, 187500.00, 187500.00, 0.00, 0
200, 187500.00, -118167.16, 187500.00, 187500.00, 187500.00, 187500.00, 187500.00, 0.00, 0
201, 187500.00, -117842.95, 187500.00, 187500.00, 187500.00, 187500.00, 187500.00, 0.00, 0
202, 187500.00, -118621.62, 187500.00, 187500.00, 187500.00, 187500.00, 187500.00, 0.00, 0
203, 187500.00, -119252.25, 187500.00, 187500.00, 187500.00, 187500.00, 187500.00, 0.00, 0
204, 187500.00, -118344.21, 187500.00, 187500.00, 187500.00, 187500.00, 187500.00, 0.00, 0
205, 187500.00, -117800.22, 187500.00, 187500.00, 187500.00, 187500.00, 187500.00, 0.00, 0
206, 187500.00, -118402.84, 187500.00, 187500.00, 187500.00, 187500.00, 187500.00, 0.00, 0
207, 187500.00, -119255.54, 187500.00, 187500.00, 187500.00, 187500.00, 187500.00, 0.00, 0
208, 187500.00, -118541.69, 187500.00, 187500.00, 187500.00, 187500.00, 187500.00, 0.00, 0
209, 187500.00, -117805.85, 187500.00, 187500.00, 187500.00, 187500.00, 187500.00, 0.00, 0
210, 187500.00, -118242.27, 187500.00, 187500.00, 187500.00, 187500.00, 187500.00, 0.00, 0
211, 187500.00, -119198.72, 187500.00, 187500.00, 187500.00, 187500.00, 187500.00, 0.00, 0
212, 187500.00, -118745.18, 187500.00, 187500.00, 187500.00, 187500.00, 187500.00, 0.00, 0
213, 187500.00, -117883.70, 187500.00, 187500.00, 187500.00, 187500.00, 187500.00, 0.00, 0
214, 187500.00, -118102.88, 187500.00, 187500.00, 187500.00, 187500.00, 187500.00, 0.00, 0
215, 187500.00, -119096.91, 187500.00, 187500.00, 187500.00, 187500.00, 187500.00, 0.00, 0
216, 187500.00, -118935.33, 187500.00, 187500.00, 187500.00, 187500.00, 187500.00, 0.00, 0
217, 187500.00, -117948.48, 187500.00, 187500.00, 187500.00, 187500.00, 187500.00, 0.00, 0
218, 187500.00, -117973.15, 187500.00, 187500.00, 187500.00, 187500.00, 187500.00, 0.00, 0
219, 187500.00, -118933.78, 187500.00, 187500.00, 187500.00, 187500.00, 187500.00, 0.00, 0
220, 187500.00, -119091.90, 187500.00, 187500.00, 187500.00, 187500.00, 187500.00, 0.00, 0
221, 187500.00, -118058.69, 187500.00, 187500.00, 187500.00, 187500.00, 187500.00, 0.00, 0
222, 187500.00, -117872.44, 187500.00, 187500.00, 187500.00, 187500.00, 187500.00, 0.00, 0
223, 187500.00, -118760.54, 187500.00, 187500.00, 187500.00, 187500.00, 187500.00, 0.00, 0
224, 187500.00, -119223.28, 187500.00, 187500.00, 187500.00, 187500.00, 187500.00, 0.00, 0
225, 187500.00, -118224.09, 187500.00, 187500.00, 187500.00, 187500.00, 187500.00, 0.00, 0
226, 187500.00, -117841.41, 187500.00, 187500.00, 187500.00, 187500.00, 187500.00, 0.00, 0
227, 187500.00, -118579.38, 187500.00, 187500.00, 187500.00, 187500.00, 187500.00, 0.00, 0
228, 187500.00, -119275.41, 187500.00, 187500.00, 187500.00, 187500.00, 187500.00, 0.00, 0
229, 187500.00, -118405.19, 187500.00, 187500.00, 187500.00, 187500.00, 187500.00, 0.00, 0
230, 187500.00, -117807.57, 187500.00, 187500.00, 187500.00, 187500.00, 187500.00, 0.00, 0
231, 187500.00, -118375.23, 187500.00, 187500.00, 187500.00, 187500.00, 187500.00, 0.00, 0
232, 187500.00, -119254.95, 187500.00, 187500.00, 187500.00, 187500.00, 187500.00, 0.00, 0
233, 187500.00, -118583.84, 187500.00, 187500.00, 187500.00, 187500.00, 187500.00, 0.00, 0
234, 187500.00, -117812.48, 187500.00, 187500.00, 187500.00, 187500.00, 187500.00, 0.00, 0
235, 187500.00, -118202.52, 187500.00, 187500.00, 187500.00, 187500.00, 187500.00, 0.00, 0
236, 187500.00, -119189.89, 187500.00, 187500.00, 187500.00, 187500.00, 187500.00, 0.00, 0
237, 187500.00, -118782.69, 187500.00, 187500.00, 187500.00, 187500.00, 187500.00, 0.00, 0
238, 187500.00, -117870.55, 187500.00, 187500.00, 187500.00, 187500.00, 187500.00, 0.00, 0
239, 187500.00, -118057.15, 187500.00, 187500.00, 187500.00, 187500.00, 187500.00, 0.00, 0
240, 187500.00, -119050.62, 187500.00, 187500.00, 187500.00, 187500.00, 187500.00, 0.00, 0
241, 187500.00, -118971.83, 187500.00, 187500.00, 187500.00, 187500.00, 187500.00, 0.00, 0
242, 187500.00, -117956.21, 187500.00, 187500.00, 187500.00, 187500.00, 187500.00, 0.00, 0
243, 187500.00, -117944.81, 187500.00, 187500.00, 187500.00, 187500.00, 187500.00, 0.00, 0
244, 187500.00, -118909.02, 187500.00, 187500.00, 187500.00, 187500.00, 187500.00, 0.00, 0
245, 187500.00, -119141.08, 187500.00, 187500.00, 187500.00, 187500.00, 187500.00, 0.00, 0
246, 187500.00, -118113.25, 187500.00, 187500.00, 187500.00, 187500.00, 187500.00, 0.00, 0
247, 187500.00, -117870.40, 187500.00, 187500.00, 187500.00, 187500.00, 187500.00, 0.00, 0
248, 187500.00, -118699.56, 187500.00, 187500.00, 187500.00, 187500.00, 187500.00, 0.00, 0
249, 187500.00, -119223.02, 187500.00, 187500.00, 187500.00, 187500.00, 187500.00, 0.00, 0
