%OpenBCI Raw EEG Data
%
%Sample Rate = 250.0 Hz
%First Column = SampleIndex
%Other Columns = EEG data in microvolts with optional columns at end being unscaled Aux data
0, -168498.16, -168451.17, -168541.92, -168544.91, -168565.09, -168554.20, -168634.88, -168584.27, -64.00, 0.00, 4144.00
1, -168499.69, -168452.69, -168543.45, -168546.52, -168566.56, -168555.77, -168636.47, -168585.75, 0.00, 0.00, 0.00
2, -168501.22, -168454.14, -168544.98, -168548.05, -168568.06, -168557.27, -168637.92, -168587.17, 0.00, 0.00, 0.00
3, -168503.33, -168456.31, -168547.17, -168550.19, -168570.25, -168559.44, -168640.13, -168589.38, 0.00, 0.00, 0.00
4, -168505.55, -168458.61, -168549.45, -168552.52, -168572.52, -168561.66, -168642.39, -168591.64, 0.00, 0.00, 0.00
5, -168505.53, -168458.52, -168549.27, -168552.47, -168572.41, -168561.58, -168642.28, -168591.64, 0.00, 0.00, 0.00
6, -168505.97, -168458.86, -168549.67, -168552.75, -168572.77, -168561.94, -168642.70, -168592.08, 0.00, 0.00, 0.00
7, -168505.97, -168458.97, -168549.84, -168552.95, -168572.89, -168562.13, -168642.81, -168592.14, -128.00, -32.00, 8352.00
8, -168507.45, -168460.39, -168551.33, -168554.44, -168574.38, -168563.66, -168644.22, -168593.56, 0.00, 0.00, 0.00
9, -168510.16, -168463.06, -168553.97, -168557.05, -168577.05, -168566.33, -168646.91, -168596.23, 0.00, 0.00, 0.00
10, -168512.23, -168465.16, -168556.05, -168559.13, -168579.16, -168568.31, -168649.03, -168598.38, 0.00, 0.00, 0.00
11, -168514.02, -168467.02, -168557.83, -168560.95, -168581.08, -168570.09, -168650.88, -168600.13, 0.00, 0.00, 0.00
12, -168516.50, -168469.42, -168560.31, -168563.42, -168583.42, -168572.47, -168653.20, -168602.53, 0.00, 0.00, 0.00
13, -168517.27, -168470.09, -168561.03, -168564.13, -168584.05, -168573.19, -168653.94, -168603.38, 0.00, 0.00, 0.00
14, -168518.78, -168471.73, -168562.64, -168565.63, -168585.61, -168574.89, -168655.47, -168604.98, 0.00, 0.00, 0.00
15, -168520.72, -168473.67, -168564.56, -168567.58, -168587.61, -168576.83, -168657.47, -168606.91, 0.00, 0.00, 0.00
16, -168521.95, -168474.86, -168565.72, -168568.78, -168588.78, -168577.95, -168658.70, -168608.05, 0.00, 0.00, 0.00
17, -168522.88, -168475.83, -168566.64, -168569.78, -168589.81, -168578.95, -168659.58, -168608.95, 0.00, 0.00, 0.00
18, -168525.38, -168478.25, -168569.14, -168572.25, -168592.20, -168581.52, -168662.03, -168611.42, -160.00, -64.00, 8384.00
19, -168526.33, -168479.31, -168570.08, -168573.19, -168593.25, -168582.42, -168663.03, -168612.38, 0.00, 0.00, 0.00
20, -168528.81, -168481.77, -168572.52, -168575.63, -168595.78, -168584.88, -168665.52, -168614.89, 0.00, 0.00, 0.00
21, -168529.84, -168482.69, -168573.63, -168576.58, -168596.75, -168585.84, -168666.53, -168615.83, 0.00, 0.00, 0.00
22, -168532.02, -168484.97, -168575.86, -168578.89, -168598.91, -168588.11, -168668.84, -168618.14, 0.00, 0.00, 0.00
23, -168533.58, -168486.55, -168577.44, -168580.36, -168600.44, -168589.64, -168670.42, -168619.61, 0.00, 0.00, 0.00
24, -168531.91, -168484.84, -168575.67, -168578.69, -168598.78, -168587.84, -168668.66, -168618.00, 0.00, 0.00, 0.00
25, -168533.44, -168486.42, -168577.19, -168580.30, -168600.34, -168589.48, -168670.14, -168619.59, 0.00, 0.00, 0.00
26, -168535.77, -168488.72, -168579.52, -168582.53, -168602.58, -168591.77, -168672.45, -168621.84, 0.00, 0.00, 0.00
27, -168538.50, -168491.59, -168582.23, -168585.34, -168605.39, -168594.55, -168675.31, -168624.61, 0.00, 0.00, 0.00
28, -168538.20, -168491.28, -168582.08, -168585.14, -168605.13, -168594.27, -168675.00, -168624.38, -144.00, -48.00, 8368.00
29, -168539.56, -168492.58, -168583.36, -168586.44, -168606.52, -168595.58, -168676.39, -168625.69, 0.00, 0.00, 0.00
30, -168541.88, -168494.86, -168585.66, -168588.67, -168608.86, -168597.86, -168678.64, -168627.97, 0.00, 0.00, 0.00
31, -168542.56, -168495.52, -168586.44, -168589.38, -168609.50, -168598.63, -168679.36, -168628.69, 0.00, 0.00, 0.00
32, -168545.06, -168498.00, -168588.89, -168591.88, -168611.94, -168601.13, -168681.77, -168631.20, 0.00, 0.00, 0.00
33, -168547.22, -168500.20, -168590.98, -168594.02, -168614.06, -168603.22, -168683.89, -168633.27, 0.00, 0.00, 0.00
34, -168548.83, -168501.91, -168592.66, -168595.69, -168615.77, -168604.88, -168685.59, -168634.88, 0.00, 0.00, 0.00
35, -168549.36, -168502.48, -168593.28, -168596.34, -168616.34, -168605.53, -168686.17, -168635.56, 0.00, 0.00, 0.00
36, -168552.27, -168505.30, -168596.09, -168599.16, -168619.19, -168608.39, -168689.08, -168638.41, 0.00, 0.00, 0.00
37, -168553.67, -168506.69, -168597.50, -168600.56, -168620.61, -168609.80, -168690.44, -168639.84, 0.00, 0.00, 0.00
38, -168554.98, -168507.81, -168598.73, -168601.75, -168621.94, -168611.03, -168691.72, -168641.02, 0.00, 0.00, 0.00
39, -168557.25, -168510.11, -168601.02, -168604.05, -168624.23, -168613.38, -168694.00, -168643.25, -144.00, -16.00, 8384.00
40, -168558.05, -168510.83, -168601.75, -168604.75, -168624.92, -168614.11, -168694.67, -168644.08, 0.00, 0.00, 0.00
41, -168558.70, -168511.56, -168602.48, -168605.39, -168625.56, -168614.83, -168695.45, -168644.75, 0.00, 0.00, 0.00
42, -168559.89, -168512.75, -168603.61, -168606.64, -168626.83, -168615.92, -168696.59, -168645.94, 0.00, 0.00, 0.00
43, -168561.27, -168514.20, -168605.02, -168608.13, -168628.27, -168617.36, -168698.00, -168647.34, 0.00, 0.00, 0.00
44, -168561.14, -168513.97, -168604.91, -168607.88, -168628.02, -168617.17, -168697.86, -168647.13, 0.00, 0.00, 0.00
45, -168564.42, -168517.23, -168608.23, -168611.19, -168631.33, -168620.53, -168701.16, -168650.45, 0.00, 0.00, 0.00
46, -168567.50, -168520.45, -168611.36, -168614.33, -168634.39, -168623.61, -168704.28, -168653.66, 0.00, 0.00, 0.00
47, -168569.36, -168522.25, -168613.11, -168616.13, -168636.22, -168625.38, -168706.00, -168655.42, 0.00, 0.00, 0.00
48, -168570.30, -168523.23, -168614.00, -168617.00, -168637.11, -168626.25, -168706.95, -168656.28, 0.00, 0.00, 0.00
49, -168571.52, -168524.48, -168615.30, -168618.22, -168638.41, -168627.52, -168708.25, -168657.56, -160.00, -16.00, 8368.00
50, -168572.30, -168525.27, -168616.13, -168619.14, -168639.23, -168628.39, -168709.16, -168658.41, 0.00, 0.00, 0.00
51, -168572.69, -168525.69, -168616.56, -168619.63, -168639.69, -168628.84, -168709.59, -168658.92, 0.00, 0.00, 0.00
52, -168573.14, -168526.14, -168617.08, -168620.13, -168640.08, -168629.33, -168710.06, -168659.34, 0.00, 0.00, 0.00
53, -168575.98, -168528.86, -168619.75, -168622.81, -168642.81, -168632.13, -168712.86, -168662.06, 0.00, 0.00, 0.00
54, -168577.81, -168530.72, -168621.64, -168624.64, -168644.83, -168633.98, -168714.72, -168663.98, 0.00, 0.00, 0.00
55, -168577.67, -168530.56, -168621.48, -168624.55, -168644.63, -168633.88, -168714.56, -168663.75, 0.00, 0.00, 0.00
56, -168580.06, -168532.95, -168623.86, -168626.94, -168646.98, -168636.19, -168716.92, -168666.08, 0.00, 0.00, 0.00
57, -168579.02, -168531.95, -168622.83, -168625.91, -168645.97, -168635.13, -168715.81, -168665.08, 0.00, 0.00, 0.00
58, -168580.41, -168533.38, -168624.30, -168627.28, -168647.34, -168636.55, -168717.33, -168666.55, 0.00, 0.00, 0.00
59, -168584.66, -168537.59, -168628.50, -168631.45, -168651.53, -168640.78, -168721.52, -168670.73, 0.00, 0.00, 0.00
60, -168585.05, -168537.98, -168628.86, -168631.88, -168651.89, -168641.16, -168721.94, -168671.11, -128.00, -32.00, 8432.00
61, -168586.44, -168539.36, -168630.27, -168633.28, -168653.27, -168642.47, -168723.30, -168672.53, 0.00, 0.00, 0.00
62, -168589.86, -168542.78, -168633.67, -168636.64, -168656.69, -168645.94, -168726.77, -168675.89, 0.00, 0.00, 0.00
63, -168591.09, -168544.03, -168634.89, -168637.80, -168657.92, -168647.17, -168727.97, -168677.05, 0.00, 0.00, 0.00
64, -168591.77, -168544.78, -168635.61, -168638.63, -168658.75, -168647.95, -168728.66, -168677.86, 0.00, 0.00, 0.00
65, -168590.59, -168543.64, -168634.31, -168637.42, -168657.55, -168646.70, -168727.48, -168676.61, 0.00, 0.00, 0.00
66, -168594.78, -168547.84, -168638.70, -168641.56, -168661.75, -168650.88, -168731.69, -168680.88, 0.00, 0.00, 0.00
67, -168595.41, -168548.53, -168639.38, -168642.20, -168662.30, -168651.63, -168732.36, -168681.45, 0.00, 0.00, 0.00
68, -168595.94, -168549.14, -168639.91, -168642.88, -168662.97, -168652.17, -168732.95, -168682.11, 0.00, 0.00, 0.00
69, -168594.70, -168547.77, -168638.52, -168641.48, -168661.59, -168650.81, -168731.59, -168680.66, 0.00, 0.00, 0.00
70, -168596.41, -168549.33, -168640.20, -168643.22, -168663.20, -168652.53, -168733.27, -168682.34, 0.00, 0.00, 0.00
71, -168597.25, -168550.23, -168640.98, -168644.11, -168664.11, -168653.36, -168734.13, -168683.27, -112.00, -32.00, 8384.00
72, -168597.95, -168551.02, -168641.69, -168644.80, -168664.89, -168653.98, -168734.81, -168683.95, 0.00, 0.00, 0.00
73, -168600.45, -168553.53, -168644.22, -168647.28, -168667.36, -168656.47, -168737.27, -168686.48, 0.00, 0.00, 0.00
74, -168604.55, -168557.56, -168648.31, -168651.27, -168671.42, -168660.61, -168741.31, -168690.59, 0.00, 0.00, 0.00
75, -168605.91, -168558.92, -168649.78, -168652.75, -168672.88, -168662.09, -168742.77, -168692.05, 0.00, 0.00, 0.00
76, -168606.27, -168559.34, -168650.20, -168653.20, -168673.17, -168662.55, -168743.22, -168692.34, 0.00, 0.00, 0.00
77, -168608.80, -168561.94, -168652.72, -168655.69, -168675.75, -168665.08, -168745.70, -168694.94, 0.00, 0.00, 0.00
78, -168609.84, -168562.91, -168653.66, -168656.58, -168676.70, -168666.02, -168746.64, -168695.84, 0.00, 0.00, 0.00
79, -168609.02, -168561.89, -168652.73, -168655.73, -168675.78, -168665.00, -168745.70, -168694.95, 0.00, 0.00, 0.00
80, -168611.09, -168564.02, -168654.83, -168657.89, -168677.92, -168667.20, -168747.81, -168697.14, 0.00, 0.00, 0.00
81, -168611.08, -168564.09, -168654.95, -168657.89, -168678.00, -168667.22, -168747.86, -168697.11, -112.00, -96.00, 8384.00
82, -168613.70, -168566.66, -168657.58, -168660.42, -168680.58, -168669.81, -168750.44, -168699.83, 0.00, 0.00, 0.00
83, -168615.77, -168568.67, -168659.58, -168662.44, -168682.53, -168671.78, -168752.47, -168701.73, 0.00, 0.00, 0.00
84, -168617.44, -168570.39, -168661.27, -168664.36, -168684.27, -168673.61, -168754.28, -168703.45, 0.00, 0.00, 0.00
85, -168618.41, -168571.36, -168662.23, -168665.30, -168685.39, -168674.55, -168755.19, -168704.41, 0.00, 0.00, 0.00
86, -168620.75, -168573.72, -168664.56, -168667.52, -168687.69, -168676.89, -168757.52, -168706.77, 0.00, 0.00, 0.00
87, -168621.86, -168574.84, -168665.67, -168668.67, -168688.78, -168677.97, -168758.70, -168707.94, 0.00, 0.00, 0.00
88, -168623.50, -168576.52, -168667.28, -168670.33, -168690.38, -168679.58, -168760.30, -168709.53, 0.00, 0.00, 0.00
89, -168627.86, -168580.83, -168671.64, -168674.70, -168694.78, -168684.03, -168764.61, -168713.94, 0.00, 0.00, 0.00
90, -168629.56, -168582.53, -168673.39, -168676.34, -168696.44, -168685.72, -168766.30, -168715.63, 0.00, 0.00, 0.00
91, -168629.00, -168582.03, -168672.73, -168675.73, -168695.84, -168685.14, -168765.70, -168715.03, 0.00, 0.00, 0.00
92, -168629.95, -168583.02, -168673.72, -168676.63, -168696.83, -168686.08, -168766.59, -168715.92, -112.00, -112.00, 8368.00
93, -168631.50, -168584.50, -168675.41, -168678.27, -168698.42, -168687.63, -168768.22, -168717.44, 0.00, 0.00, 0.00
94, -168633.27, -168586.28, -168677.14, -168680.00, -168700.19, -168689.44, -168770.06, -168719.28, 0.00, 0.00, 0.00
95, -168634.55, -168587.56, -168678.42, -168681.30, -168701.39, -168690.64, -168771.28, -168720.61, 0.00, 0.00, 0.00
96, -168637.53, -168590.58, -168681.39, -168684.30, -168704.41, -168693.61, -168774.34, -168723.55, 0.00, 0.00, 0.00
97, -168638.78, -168591.88, -168682.66, -168685.61, -168705.80, -168694.91, -168775.56, -168724.86, 0.00, 0.00, 0.00
98, -168639.39, -168592.44, -168683.27, -168686.28, -168706.42, -168695.52, -168776.19, -168725.47, 0.00, 0.00, 0.00
99, -168641.36, -168594.38, -168685.19, -168688.19, -168708.33, -168697.39, -168778.16, -168727.41, 0.00, 0.00, 0.00
100, -168643.03, -168596.05, -168686.80, -168689.84, -168709.95, -168699.05, -168779.73, -168729.00, 0.00, 0.00, 0.00
101, -168644.00, -168597.02, -168687.78, -168690.83, -168710.88, -168700.13, -168780.72, -168730.05, 0.00, 0.00, 0.00
102, -168644.13, -168597.13, -168687.98, -168690.98, -168711.16, -168700.25, -168780.92, -168730.23, -128.00, -16.00, 8384.00
103, -168644.67, -168597.58, -168688.34, -168691.45, -168711.56, -168700.70, -168781.28, -168730.66, 0.00, 0.00, 0.00
104, -168646.50, -168599.53, -168690.22, -168693.28, -168713.28, -168702.53, -168783.20, -168732.42, 0.00, 0.00, 0.00
105, -168648.94, -168601.92, -168692.61, -168695.63, -168715.63, -168704.95, -168785.55, -168734.83, 0.00, 0.00, 0.00
106, -168649.45, -168602.42, -168693.13, -168696.13, -168716.23, -168705.42, -168786.00, -168735.39, 0.00, 0.00, 0.00
107, -168650.17, -168603.25, -168693.92, -168696.92, -168717.06, -168706.27, -168786.80, -168736.20, 0.00, 0.00, 0.00
108, -168653.98, -168606.95, -168697.69, -168700.72, -168720.81, -168710.09, -168790.63, -168740.02, 0.00, 0.00, 0.00
109, -168655.39, -168608.36, -168699.20, -168702.17, -168722.30, -168711.56, -168792.13, -168741.45, 0.00, 0.00, 0.00
110, -168654.28, -168607.30, -168698.13, -168701.13, -168721.16, -168710.38, -168791.00, -168740.27, 0.00, 0.00, 0.00
111, -168654.72, -168607.78, -168698.59, -168701.50, -168721.59, -168710.77, -168791.47, -168740.72, 0.00, 0.00, 0.00
112, -168657.72, -168610.84, -168701.58, -168704.53, -168724.64, -168713.78, -168794.47, -168743.78, 0.00, 0.00, 0.00
113, -168658.22, -168611.27, -168702.09, -168705.06, -168725.16, -168714.34, -168794.88, -168744.28, -144.00, -32.00, 8416.00
114, -168660.80, -168613.84, -168704.64, -168707.72, -168727.75, -168716.89, -168797.44, -168746.88, 0.00, 0.00, 0.00
115, -168664.27, -168617.22, -168708.03, -168711.09, -168731.22, -168720.33, -168801.00, -168750.33, 0.00, 0.00, 0.00
116, -168667.42, -168620.38, -168711.19, -168714.11, -168734.30, -168723.44, -168804.14, -168753.47, 0.00, 0.00, 0.00
117, -168668.78, -168621.83, -168712.61, -168715.56, -168735.70, -168724.89, -168805.55, -168754.86, 0.00, 0.00, 0.00
118, -168667.02, -168620.02, -168710.83, -168713.80, -168733.92, -168723.19, -168803.66, -168753.05, 0.00, 0.00, 0.00
119, -168667.53, -168620.53, -168711.31, -168714.27, -168734.45, -168723.67, -168804.23, -168753.58, 0.00, 0.00, 0.00
120, -168667.84, -168620.81, -168711.67, -168714.58, -168734.70, -168723.98, -168804.59, -168753.88, 0.00, 0.00, 0.00
121, -168669.31, -168622.36, -168713.23, -168716.23, -168736.22, -168725.48, -168806.16, -168755.42, 0.00, 0.00, 0.00
122, -168671.22, -168624.28, -168715.14, -168718.09, -168738.14, -168727.30, -168808.06, -168757.25, 0.00, 0.00, 0.00
123, -168673.97, -168627.03, -168717.88, -168720.91, -168740.98, -168730.05, -168810.84, -168760.06, -176.00, -64.00, 8464.00
124, -168673.50, -168626.58, -168717.42, -168720.45, -168740.58, -168729.69, -168810.36, -168759.78, 0.00, 0.00, 0.00
125, -168676.86, -168629.84, -168720.73, -168723.72, -168743.78, -168733.02, -168813.67, -168763.02, 0.00, 0.00, 0.00
126, -168679.05, -168632.16, -168723.03, -168725.92, -168746.03, -168735.22, -168815.83, -168765.20, 0.00, 0.00, 0.00
127, -168682.13, -168635.23, -168725.98, -168728.98, -168749.14, -168738.36, -168818.89, -168768.27, 0.00, 0.00, 0.00
128, -168683.48, -168636.58, -168727.34, -168730.39, -168750.53, -168739.66, -168820.31, -168769.61, 0.00, 0.00, 0.00
129, -168683.92, -168636.98, -168727.75, -168730.86, -168750.84, -168740.00, -168820.70, -168770.02, 0.00, 0.00, 0.00
130, -168685.77, -168638.86, -168729.53, -168732.64, -168752.69, -168741.97, -168822.61, -168772.00, 0.00, 0.00, 0.00
131, -168685.02, -168638.11, -168728.81, -168731.88, -168752.00, -168741.30, -168821.80, -168771.17, 0.00, 0.00, 0.00
132, -168687.97, -168640.91, -168731.70, -168734.75, -168754.91, -168744.17, -168824.69, -168774.06, 0.00, 0.00, 0.00
133, -168687.73, -168640.83, -168731.55, -168734.59, -168754.75, -168743.91, -168824.58, -168773.86, 0.00, 0.00, 0.00
134, -168688.63, -168641.69, -168732.39, -168735.41, -168755.59, -168744.73, -168825.45, -168774.73, -144.00, -80.00, 8464.00
135, -168689.38, -168642.36, -168733.16, -168736.16, -168756.33, -168745.55, -168826.13, -168775.48, 0.00, 0.00, 0.00
136, -168691.94, -168644.98, -168735.80, -168738.77, -168758.95, -168748.16, -168828.70, -168778.06, 0.00, 0.00, 0.00
137, -168693.34, -168646.25, -168737.14, -168740.16, -168760.27, -168749.42, -168830.08, -168779.42, 0.00, 0.00, 0.00
138, -168695.50, -168648.38, -168739.28, -168742.23, -168762.34, -168751.58, -168832.20, -168781.53, 0.00, 0.00, 0.00
139, -168696.83, -168649.89, -168740.67, -168743.73, -168763.73, -168753.00, -168833.67, -168782.91, 0.00, 0.00, 0.00
140, -168698.83, -168651.97, -168742.77, -168745.88, -168765.80, -168755.08, -168835.73, -168785.14, 0.00, 0.00, 0.00
141, -168699.03, -168652.20, -168742.95, -168745.94, -168766.03, -168755.23, -168835.89, -168785.33, 0.00, 0.00, 0.00
142, -168699.03, -168652.02, -168742.75, -168745.73, -168765.97, -168755.13, -168835.70, -168785.13, 0.00, 0.00, 0.00
143, -168701.86, -168654.77, -168745.52, -168748.58, -168768.77, -168757.97, -168838.48, -168787.97, 0.00, 0.00, 0.00
144, -168705.08, -168658.03, -168748.78, -168751.86, -168772.08, -168761.30, -168841.81, -168791.20, 0.00, 0.00, 0.00
145, -168706.22, -168659.17, -168749.98, -168753.00, -168773.19, -168762.38, -168842.91, -168792.28, -144.00, -96.00, 8416.00
146, -168707.20, -168660.16, -168750.91, -168754.02, -168774.16, -168763.36, -168843.91, -168793.23, 0.00, 0.00, 0.00
147, -168709.55, -168662.44, -168753.25, -168756.27, -168776.41, -168765.66, -168846.23, -168795.55, 0.00, 0.00, 0.00
148, -168711.00, -168664.05, -168754.81, -168757.83, -168777.95, -168767.17, -168847.80, -168797.06, 0.00, 0.00, 0.00
149, -168711.36, -168664.42, -168755.19, -168758.19, -168778.38, -168767.63, -168848.17, -168797.53, 0.00, 0.00, 0.00
150, -168713.73, -168666.70, -168757.55, -168760.56, -168780.72, -168770.02, -168850.45, -168799.91, 0.00, 0.00, 0.00
151, -168714.22, -168667.17, -168757.98, -168761.03, -168781.19, -168770.47, -168850.91, -168800.28, 0.00, 0.00, 0.00
152, -168713.95, -168666.86, -168757.61, -168760.77, -168780.91, -168770.17, -168850.64, -168800.02, 0.00, 0.00, 0.00
153, -168717.64, -168670.59, -168761.23, -168764.41, -168784.61, -168773.86, -168854.42, -168803.75, 0.00, 0.00, 0.00
154, -168718.89, -168671.98, -168762.61, -168765.67, -168785.91, -168775.16, -168855.72, -168805.00, 0.00, 0.00, 0.00
155, -168718.11, -168671.06, -168761.83, -168764.97, -168785.03, -168774.33, -168854.89, -168804.09, -144.00, -48.00, 8352.00
156, -168718.52, -168671.31, -168762.23, -168765.19, -168785.38, -168774.69, -168855.20, -168804.50, 0.00, 0.00, 0.00
157, -168723.86, -168676.67, -168767.48, -168770.59, -168790.73, -168780.00, -168860.58, -168809.84, 0.00, 0.00, 0.00
158, -168724.95, -168677.81, -168768.55, -168771.69, -168791.81, -168781.06, -168861.64, -168810.89, 0.00, 0.00, 0.00
159, -168727.86, -168680.88, -168771.56, -168774.64, -168794.73, -168784.08, -168864.61, -168813.91, 0.00, 0.00, 0.00
160, -168728.55, -168681.44, -168772.16, -168775.25, -168795.31, -168784.63, -168865.17, -168814.50, 0.00, 0.00, 0.00
161, -168728.75, -168681.61, -168772.36, -168775.45, -168795.50, -168784.81, -168865.30, -168814.72, 0.00, 0.00, 0.00
162, -168731.95, -168684.91, -168775.67, -168778.78, -168798.84, -168788.13, -168868.58, -168817.89, 0.00, 0.00, 0.00
163, -168732.70, -168685.70, -168776.50, -168779.52, -168799.70, -168788.95, -168869.41, -168818.70, 0.00, 0.00, 0.00
164, -168735.69, -168688.61, -168779.41, -168782.36, -168802.58, -168791.81, -168872.31, -168821.69, 0.00, 0.00, 0.00
165, -168736.64, -168689.48, -168780.28, -168783.25, -168803.50, -168792.77, -168873.25, -168822.61, 0.00, 0.00, 0.00
166, -168737.67, -168690.55, -168781.39, -168784.31, -168804.59, -168793.91, -168874.28, -168823.66, -144.00, -48.00, 8352.00
167, -168737.77, -168690.67, -168781.50, -168784.41, -168804.55, -168793.97, -168874.33, -168823.77, 0.00, 0.00, 0.00
168, -168740.11, -168693.03, -168783.73, -168786.78, -168806.92, -168796.33, -168876.66, -168826.09, 0.00, 0.00, 0.00
169, -168743.73, -168696.72, -168787.38, -168790.41, -168810.61, -168799.98, -168880.34, -168829.73, 0.00, 0.00, 0.00
170, -168741.73, -168694.63, -168785.42, -168788.39, -168808.61, -168797.95, -168878.39, -168827.64, 0.00, 0.00, 0.00
171, -168744.36, -168697.23, -168788.13, -168791.03, -168811.25, -168800.59, -168881.13, -168830.36, 0.00, 0.00, 0.00
172, -168746.50, -168699.47, -168790.27, -168793.31, -168813.53, -168802.77, -168883.34, -168832.64, 0.00, 0.00, 0.00
173, -168748.27, -168701.06, -168791.86, -168794.98, -168815.09, -168804.41, -168884.95, -168834.20, 0.00, 0.00, 0.00
174, -168750.17, -168703.05, -168793.91, -168796.92, -168817.05, -168806.36, -168886.84, -168836.17, 0.00, 0.00, 0.00
175, -168749.77, -168702.77, -168793.48, -168796.55, -168816.66, -168806.05, -168886.53, -168835.81, 0.00, 0.00, 0.00
176, -168750.61, -168703.55, -168794.31, -168797.44, -168817.53, -168806.88, -168887.42, -168836.63, -144.00, -64.00, 8304.00
177, -168753.08, -168705.95, -168796.80, -168799.91, -168819.95, -168809.33, -168889.80, -168839.08, 0.00, 0.00, 0.00
178, -168754.64, -168707.59, -168798.31, -168801.42, -168821.58, -168811.00, -168891.36, -168840.67, 0.00, 0.00, 0.00
179, -168755.13, -168708.06, -168798.72, -168801.80, -168822.00, -168811.41, -168891.78, -168841.09, 0.00, 0.00, 0.00
180, -168756.05, -168708.97, -168799.67, -168802.72, -168822.86, -168812.27, -168892.77, -168841.97, 0.00, 0.00, 0.00
181, -168757.45, -168710.42, -168801.19, -168804.28, -168824.39, -168813.69, -168894.27, -168843.44, 0.00, 0.00, 0.00
182, -168758.66, -168711.70, -168802.45, -168805.48, -168825.64, -168814.92, -168895.45, -168844.67, 0.00, 0.00, 0.00
183, -168759.73, -168712.77, -168803.59, -168806.53, -168826.75, -168816.06, -168896.45, -168845.72, 0.00, 0.00, 0.00
184, -168758.92, -168711.88, -168802.73, -168805.73, -168825.94, -168815.20, -168895.63, -168844.95, 0.00, 0.00, 0.00
185, -168760.78, -168713.69, -168804.48, -168807.56, -168827.70, -168817.00, -168897.42, -168846.77, 0.00, 0.00, 0.00
186, -168761.83, -168714.88, -168805.64, -168808.64, -168828.84, -168818.19, -168898.63, -168847.84, 0.00, 0.00, 0.00
187, -168763.78, -168716.77, -168807.59, -168810.50, -168830.81, -168820.08, -168900.58, -168849.75, -144.00, -16.00, 8288.00
188, -168767.13, -168720.14, -168810.92, -168813.88, -168834.19, -168823.45, -168903.86, -168853.14, 0.00, 0.00, 0.00
189, -168770.06, -168723.14, -168813.95, -168816.95, -168837.09, -168826.47, -168906.88, -168856.19, 0.00, 0.00, 0.00
190, -168771.17, -168724.17, -168814.98, -168818.14, -168838.14, -168827.45, -168907.92, -168857.25, 0.00, 0.00, 0.00
191, -168771.42, -168724.39, -168815.19, -168818.23, -168838.28, -168827.61, -168908.13, -168857.34, 0.00, 0.00, 0.00
192, -168772.45, -168725.52, -168816.33, -168819.30, -168839.34, -168828.70, -168909.20, -168858.48, 0.00, 0.00, 0.00
193, -168773.14, -168726.20, -168817.09, -168820.06, -168840.06, -168829.41, -168909.95, -168859.20, 0.00, 0.00, 0.00
194, -168775.61, -168728.66, -168819.53, -168822.42, -168842.53, -168831.80, -168912.31, -168861.67, 0.00, 0.00, 0.00
195, -168775.84, -168728.69, -168819.50, -168822.52, -168842.59, -168831.95, -168912.48, -168861.77, 0.00, 0.00, 0.00
196, -168776.98, -168729.88, -168820.75, -168823.70, -168843.86, -168833.19, -168913.73, -168862.97, 0.00, 0.00, 0.00
197, -168779.53, -168732.52, -168823.38, -168826.25, -168846.38, -168835.73, -168916.31, -168865.50, -96.00, -16.00, 8368.00
198, -168780.91, -168733.89, -168824.67, -168827.66, -168847.84, -168837.14, -168917.67, -168867.02, 0.00, 0.00, 0.00
199, -168785.53, -168738.52, -168829.33, -168832.38, -168852.47, -168841.83, -168922.30, -168871.64, 0.00, 0.00, 0.00
200, -168786.48, -168739.38, -168830.09, -168833.16, -168853.25, -168842.80, -168923.22, -168872.41, 0.00, 0.00, 0.00
201, -168787.98, -168741.09, -168831.69, -168834.81, -168854.89, -168844.36, -168924.80, -168874.05, 0.00, 0.00, 0.00
202, -168789.61, -168742.77, -168833.42, -168836.52, -168856.67, -168846.02, -168926.52, -168875.78, 0.00, 0.00, 0.00
203, -168789.17, -168742.25, -168832.94, -168835.95, -168856.11, -168845.47, -168926.00, -168875.27, 0.00, 0.00, 0.00
204, -168790.48, -168743.53, -168834.25, -168837.31, -168857.39, -168846.84, -168927.30, -168876.56, 0.00, 0.00, 0.00
205, -168791.89, -168744.89, -168835.59, -168838.61, -168858.84, -168848.17, -168928.75, -168877.97, 0.00, 0.00, 0.00
206, -168792.48, -168745.47, -168836.27, -168839.17, -168859.36, -168848.77, -168929.27, -168878.44, 0.00, 0.00, 0.00
207, -168794.41, -168747.34, -168838.17, -168841.09, -168861.14, -168850.56, -168931.14, -168880.30, 0.00, 0.00, 0.00
208, -168795.58, -168748.59, -168839.22, -168842.33, -168862.38, -168851.73, -168932.28, -168881.48, -128.00, 0.00, 8384.00
209, -168796.69, -168749.72, -168840.31, -168843.33, -168863.56, -168852.94, -168933.41, -168882.64, 0.00, 0.00, 0.00
210, -168798.63, -168751.66, -168842.44, -168845.36, -168865.50, -168855.00, -168935.50, -168884.66, 0.00, 0.00, 0.00
211, -168800.56, -168753.61, -168844.41, -168847.44, -168867.53, -168856.97, -168937.42, -168886.67, 0.00, 0.00, 0.00
212, -168800.86, -168753.92, -168844.69, -168847.80, -168867.80, -168857.34, -168937.73, -168887.03, 0.00, 0.00, 0.00
213, -168802.22, -168755.22, -168846.13, -168849.08, -168869.14, -168858.73, -168939.08, -168888.30, 0.00, 0.00, 0.00
214, -168803.25, -168756.27, -168847.19, -168850.19, -168870.27, -168859.67, -168940.16, -168889.34, 0.00, 0.00, 0.00
215, -168804.64, -168757.55, -168848.36, -168851.48, -168871.48, -168860.97, -168941.44, -168890.61, 0.00, 0.00, 0.00
216, -168805.86, -168758.77, -168849.61, -168852.67, -168872.70, -168862.22, -168942.66, -168891.81, 0.00, 0.00, 0.00
217, -168807.70, -168760.72, -168851.52, -168854.48, -168874.55, -168864.03, -168944.56, -168893.64, 0.00, 0.00, 0.00
218, -168808.06, -168761.16, -168851.98, -168854.89, -168874.98, -168864.45, -168944.89, -168894.16, 0.00, 0.00, 0.00
219, -168811.52, -168764.61, -168855.44, -168858.42, -168878.52, -168867.98, -168948.38, -168897.64, -128.00, -32.00, 8432.00
220, -168813.33, -168766.34, -168857.20, -168860.20, -168880.28, -168869.75, -168950.22, -168899.41, 0.00, 0.00, 0.00
221, -168812.39, -168765.30, -168856.20, -168859.20, -168879.30, -168868.73, -168949.19, -168898.41, 0.00, 0.00, 0.00
222, -168816.14, -168769.03, -168859.88, -168862.91, -168883.09, -168872.47, -168952.98, -168902.11, 0.00, 0.00, 0.00
223, -168818.05, -168770.94, -168861.70, -168864.86, -168884.97, -168874.38, -168954.86, -168904.02, 0.00, 0.00, 0.00
224, -168820.03, -168772.88, -168863.63, -168866.78, -168886.84, -168876.28, -168956.67, -168905.91, 0.00, 0.00, 0.00
225, -168821.69, -168774.58, -168865.44, -168868.50, -168888.61, -168877.97, -168958.47, -168907.75, 0.00, 0.00, 0.00
226, -168822.00, -168774.91, -168865.75, -168868.78, -168888.91, -168878.23, -168958.81, -168908.08, 0.00, 0.00, 0.00
227, -168821.67, -168774.73, -168865.48, -168868.56, -168888.56, -168878.02, -168958.53, -168907.81, 0.00, 0.00, 0.00
228, -168822.81, -168775.84, -168866.58, -168869.70, -168889.70, -168879.14, -168959.58, -168908.91, 0.00, 0.00, 0.00
229, -168824.11, -168777.13, -168867.89, -168870.94, -168890.98, -168880.44, -168960.92, -168910.25, -96.00, -48.00, 8416.00
230, -168825.98, -168779.16, -168869.80, -168872.86, -168892.91, -168882.38, -168962.80, -168912.17, 0.00, 0.00, 0.00
231, -168827.77, -168780.83, -168871.53, -168874.55, -168894.63, -168884.08, -168964.47, -168913.78, 0.00, 0.00, 0.00
232, -168829.69, -168782.75, -168873.44, -168876.56, -168896.61, -168886.05, -168966.47, -168915.72, 0.00, 0.00, 0.00
233, -168832.06, -168784.95, -168875.78, -168878.84, -168898.92, -168888.36, -168968.81, -168918.05, 0.00, 0.00, 0.00
234, -168832.52, -168785.39, -168876.16, -168879.30, -168899.41, -168888.81, -168969.28, -168918.56, 0.00, 0.00, 0.00
235, -168834.45, -168787.38, -168878.17, -168881.33, -168901.33, -168890.80, -168971.30, -168920.44, 0.00, 0.00, 0.00
236, -168834.77, -168787.58, -168878.44, -168881.48, -168901.59, -168891.05, -168971.56, -168920.64, 0.00, 0.00, 0.00
237, -168837.38, -168790.17, -168880.92, -168884.13, -168904.13, -168893.59, -168974.08, -168923.33, 0.00, 0.00, 0.00
238, -168840.88, -168793.81, -168884.56, -168887.72, -168907.67, -168897.22, -168977.64, -168926.92, 0.00, 0.00, 0.00
239, -168840.02, -168793.06, -168883.73, -168886.89, -168906.86, -168896.33, -168976.70, -168926.03, 0.00, 0.00, 0.00
240, -168841.00, -168794.05, -168884.67, -168887.83, -168907.83, -168897.39, -168977.70, -168927.03, -128.00, -48.00, 8416.00
241, -168842.36, -168795.41, -168886.06, -168889.16, -168909.28, -168898.81, -168979.11, -168928.36, 0.00, 0.00, 0.00
242, -168842.44, -168795.34, -168886.06, -168889.27, -168909.31, -168898.78, -168979.05, -168928.41, 0.00, 0.00, 0.00
243, -168843.97, -168796.81, -168887.56, -168890.73, -168910.78, -168900.33, -168980.56, -168929.89, 0.00, 0.00, 0.00
244, -168845.42, -168798.41, -168889.08, -168892.17, -168912.33, -168901.80, -168982.13, -168931.38, 0.00, 0.00, 0.00
245, -168848.30, -168801.27, -168892.03, -168895.00, -168915.17, -168904.59, -168984.92, -168934.30, 0.00, 0.00, 0.00
246, -168850.70, -168803.59, -168894.36, -168897.42, -168917.48, -168907.03, -168987.44, -168936.61, 0.00, 0.00, 0.00
247, -168852.66, -168805.42, -168896.23, -168899.31, -168919.38, -168908.91, -168989.28, -168938.55, 0.00, 0.00, 0.00
248, -168853.67, -168806.56, -168897.44, -168900.53, -168920.59, -168910.11, -168990.31, -168939.67, 0.00, 0.00, 0.00
249, -168856.45, -168809.39, -168900.19, -168903.39, -168923.44, -168912.89, -168993.27, -168942.48, 0.00, 0.00, 0.00
250, -168857.14, -168810.14, -168900.92, -168904.03, -168924.17, -168913.48, -168993.91, -168943.17, -128.00, -64.00, 8368.00
251, -168858.53, -168811.50, -168902.34, -168905.25, -168925.45, -168914.94, -168995.30, -168944.52, 0.00, 0.00, 0.00
252, -168860.63, -168813.53, -168904.48, -168907.30, -168927.48, -168917.00, -168997.42, -168946.53, 0.00, 0.00, 0.00
253, -168861.66, -168814.55, -168905.44, -168908.34, -168928.56, -168918.03, -168998.42, -168947.59, 0.00, 0.00, 0.00
254, -168864.31, -168817.17, -168908.03, -168911.05, -168931.23, -168920.70, -169001.16, -168950.34, 0.00, 0.00, 0.00
255, -168865.13, -168818.00, -168908.86, -168912.00, -168932.11, -168921.45, -169001.89, -168951.16, 0.00, 0.00, 0.00
0, -168864.61, -168817.48, -168908.30, -168911.36, -168931.50, -168920.91, -169001.27, -168950.55, 0.00, 0.00, 0.00
1, -168868.03, -168820.89, -168911.72, -168914.67, -168934.88, -168924.39, -169004.63, -168953.97, 0.00, 0.00, 0.00
2, -168869.91, -168822.81, -168913.58, -168916.59, -168936.78, -168926.31, -169006.58, -168955.91, 0.00, 0.00, 0.00
3, -168873.86, -168826.77, -168917.48, -168920.55, -168940.77, -168930.28, -169010.59, -168959.94, 0.00, 0.00, 0.00
4, -168874.89, -168827.77, -168918.56, -168921.61, -168941.72, -168931.28, -169011.64, -168960.92, 0.00, 0.00, 0.00
5, -168875.27, -168828.11, -168918.91, -168921.98, -168942.14, -168931.59, -169011.91, -168961.22, -96.00, -64.00, 8448.00
6, -168876.91, -168829.81, -168920.64, -168923.66, -168943.89, -168933.34, -169013.64, -168962.95, 0.00, 0.00, 0.00
7, -168878.95, -168831.81, -168922.67, -168925.67, -168945.92, -168935.34, -169015.77, -168964.98, 0.00, 0.00, 0.00
8, -168881.59, -168834.48, -168925.34, -168928.27, -168948.56, -168937.94, -169018.39, -168967.61, 0.00, 0.00, 0.00
9, -168882.09, -168834.97, -168925.78, -168928.78, -168949.05, -168938.45, -169018.83, -168968.16, 0.00, 0.00, 0.00
10, -168883.78, -168836.72, -168927.53, -168930.61, -168950.77, -168940.31, -169020.59, -168969.92, 0.00, 0.00, 0.00
11, -168884.88, -168837.78, -168928.64, -168931.75, -168951.89, -168941.45, -169021.69, -168970.98, 0.00, 0.00, 0.00
12, -168886.28, -168839.22, -168930.05, -168933.19, -168953.23, -168942.80, -169023.08, -168972.36, 0.00, 0.00, 0.00
13, -168886.91, -168839.84, -168930.64, -168933.77, -168953.80, -168943.36, -169023.66, -168972.92, 0.00, 0.00, 0.00
14, -168888.56, -168841.52, -168932.25, -168935.38, -168955.52, -168944.97, -169025.36, -168974.53, 0.00, 0.00, 0.00
15, -168888.41, -168841.31, -168932.05, -168935.17, -168955.31, -168944.78, -169025.14, -168974.36, -80.00, -64.00, 8448.00
16, -168889.27, -168842.14, -168932.94, -168936.06, -168956.19, -168945.63, -169026.03, -168975.22, 0.00, 0.00, 0.00
17, -168891.58, -168844.41, -168935.19, -168938.33, -168958.42, -168947.91, -169028.33, -168977.59, 0.00, 0.00, 0.00
18, -168893.89, -168846.77, -168937.47, -168940.64, -168960.81, -168950.28, -169030.64, -168979.98, 0.00, 0.00, 0.00
19, -168894.73, -168847.52, -168938.30, -168941.47, -168961.61, -168951.08, -169031.34, -168980.77, 0.00, 0.00, 0.00
20, -168896.70, -168849.50, -168940.38, -168943.39, -168963.52, -168953.14, -169033.34, -168982.67, 0.00, 0.00, 0.00
21, -168897.95, -168850.77, -168941.63, -168944.67, -168964.78, -168954.34, -169034.64, -168983.92, 0.00, 0.00, 0.00
22, -168899.61, -168852.41, -168943.22, -168946.27, -168966.44, -168955.88, -169036.27, -168985.58, 0.00, 0.00, 0.00
23, -168900.95, -168853.83, -168944.63, -168947.64, -168967.88, -168957.25, -169037.63, -168986.80, 0.00, 0.00, 0.00
24, -168902.78, -168855.72, -168946.48, -168949.55, -168969.75, -168959.17, -169039.52, -168988.72, 0.00, 0.00, 0.00
25, -168904.86, -168857.77, -168948.53, -168951.63, -168971.77, -168961.30, -169041.47, -168990.84, 0.00, 0.00, 0.00
26, -168905.75, -168858.64, -168949.41, -168952.41, -168972.66, -168962.22, -169042.44, -168991.75, -48.00, -80.00, 8448.00
27, -168907.92, -168860.77, -168951.52, -168954.63, -168974.80, -168964.30, -169044.61, -168993.84, 0.00, 0.00, 0.00
28, -168907.23, -168860.03, -168950.92, -168953.97, -168974.00, -168963.61, -169043.88, -168993.20, 0.00, 0.00, 0.00
29, -168909.02, -168861.81, -168952.67, -168955.83, -168975.86, -168965.45, -169045.66, -168995.03, 0.00, 0.00, 0.00
30, -168910.72, -168863.67, -168954.34, -168957.55, -168977.66, -168967.25, -169047.44, -168996.77, 0.00, 0.00, 0.00
31, -168911.39, -168864.31, -168955.02, -168958.19, -168978.27, -168967.88, -169048.16, -168997.42, 0.00, 0.00, 0.00
32, -168910.86, -168863.69, -168954.58, -168957.59, -168977.75, -168967.25, -169047.53, -168996.77, 0.00, 0.00, 0.00
33, -168913.31, -168866.11, -168956.98, -168959.98, -168980.19, -168969.75, -169049.97, -168999.23, 0.00, 0.00, 0.00
34, -168914.16, -168867.02, -168957.84, -168960.81, -168981.02, -168970.67, -169050.84, -169000.13, 0.00, 0.00, 0.00
35, -168914.78, -168867.67, -168958.48, -168961.50, -168981.73, -168971.22, -169051.52, -169000.73, 0.00, 0.00, 0.00
36, -168914.81, -168867.64, -168958.55, -168961.50, -168981.66, -168971.22, -169051.48, -169000.69, 0.00, 0.00, 0.00
37, -168916.67, -168869.66, -168960.36, -168963.47, -168983.56, -168973.19, -169053.48, -169002.56, -96.00, -32.00, 8464.00
38, -168918.61, -168871.64, -168962.28, -168965.48, -168985.58, -168975.09, -169055.36, -169004.59, 0.00, 0.00, 0.00
39, -168921.66, -168874.59, -168965.30, -168968.44, -168988.59, -168978.00, -169058.38, -169007.61, 0.00, 0.00, 0.00
40, -168922.56, -168875.53, -168966.20, -168969.34, -168989.48, -168978.95, -169059.30, -169008.47, 0.00, 0.00, 0.00
41, -168923.80, -168876.77, -168967.42, -168970.53, -168990.66, -168980.23, -169060.50, -169009.69, 0.00, 0.00, 0.00
42, -168925.63, -168878.58, -168969.23, -168972.34, -168992.50, -168982.06, -169062.39, -169011.56, 0.00, 0.00, 0.00
43, -168927.69, -168880.52, -168971.30, -168974.33, -168994.53, -168984.08, -169064.36, -169013.63, 0.00, 0.00, 0.00
44, -168929.31, -168882.13, -168972.91, -168975.97, -168996.19, -168985.64, -169065.91, -169015.22, 0.00, 0.00, 0.00
45, -168932.00, -168884.80, -168975.63, -168978.67, -168998.94, -168988.38, -169068.66, -169017.89, 0.00, 0.00, 0.00
46, -168932.52, -168885.27, -168976.19, -168979.20, -168999.34, -168988.92, -169069.13, -169018.36, 0.00, 0.00, 0.00
47, -168932.69, -168885.48, -168976.41, -168979.36, -168999.55, -168989.16, -169069.38, -169018.61, -112.00, -16.00, 8464.00
48, -168934.44, -168887.30, -168978.20, -168981.19, -169001.38, -168990.83, -169071.19, -169020.41, 0.00, 0.00, 0.00
49, -168938.39, -168891.11, -168982.11, -168985.08, -169005.25, -168994.69, -169075.08, -169024.27, 0.00, 0.00, 0.00
50, -168939.53, -168892.28, -168983.23, -168986.22, -169006.36, -168995.88, -169076.17, -169025.42, 0.00, 0.00, 0.00
51, -168939.86, -168892.77, -168983.61, -168986.69, -169006.83, -168996.33, -169076.64, -169025.92, 0.00, 0.00, 0.00
52, -168942.45, -168895.34, -168986.20, -168989.22, -169009.38, -168998.89, -169079.11, -169028.48, 0.00, 0.00, 0.00
53, -168941.97, -168894.83, -168985.78, -168988.77, -169008.95, -168998.50, -169078.64, -169028.05, 0.00, 0.00, 0.00
54, -168941.55, -168894.36, -168985.33, -168988.39, -169008.44, -168997.98, -169078.20, -169027.55, 0.00, 0.00, 0.00
55, -168945.05, -168897.84, -168988.81, -168991.83, -169011.91, -169001.47, -169081.69, -169030.97, 0.00, 0.00, 0.00
56, -168947.48, -168900.30, -168991.28, -168994.30, -169014.41, -169003.91, -169084.13, -169033.55, 0.00, 0.00, 0.00
57, -168947.23, -168900.09, -168991.00, -168994.03, -169014.19, -169003.66, -169084.02, -169033.25, 0.00, 0.00, 0.00
58, -168947.94, -168900.80, -168991.61, -168994.69, -169014.86, -169004.38, -169084.70, -169033.97, -96.00, 0.00, 8432.00
59, -168948.58, -168901.44, -168992.17, -168995.34, -169015.48, -169004.95, -169085.31, -169034.55, 0.00, 0.00, 0.00
60, -168950.70, -168903.45, -168994.34, -168997.47, -169017.63, -169007.13, -169087.41, -169036.67, 0.00, 0.00, 0.00
61, -168953.20, -168906.05, -168996.91, -168999.98, -169020.13, -169009.63, -169089.91, -169039.23, 0.00, 0.00, 0.00
62, -168954.50, -168907.41, -168998.16, -169001.28, -169021.45, -169010.91, -169091.20, -169040.42, 0.00, 0.00, 0.00
63, -168956.98, -168909.83, -169000.73, -169003.81, -169023.94, -169013.52, -169093.69, -169043.02, 0.00, 0.00, 0.00
64, -168957.55, -168910.34, -169001.22, -169004.31, -169024.47, -169014.00, -169094.25, -169043.53, 0.00, 0.00, 0.00
65, -168957.75, -168910.58, -169001.48, -169004.53, -169024.73, -169014.23, -169094.50, -169043.73, 0.00, 0.00, 0.00
66, -168960.09, -168912.94, -169003.81, -169006.88, -169027.00, -169016.53, -169096.80, -169045.98, 0.00, 0.00, 0.00
67, -168961.02, -168913.78, -169004.75, -169007.81, -169027.94, -169017.52, -169097.69, -169046.95, 0.00, 0.00, 0.00
68, -168962.58, -168915.41, -169006.41, -169009.41, -169029.56, -169019.11, -169099.30, -169048.56, -160.00, 0.00, 8416.00
69, -168964.56, -168917.42, -169008.33, -169011.45, -169031.50, -169021.09, -169101.33, -169050.58, 0.00, 0.00, 0.00
70, -168964.81, -168917.56, -169008.48, -169011.59, -169031.63, -169021.25, -169101.48, -169050.73, 0.00, 0.00, 0.00
71, -168967.38, -168920.16, -169011.13, -169014.20, -169034.23, -169023.81, -169104.08, -169053.33, 0.00, 0.00, 0.00
72, -168968.28, -168921.02, -169011.97, -169015.08, -169035.17, -169024.69, -169105.02, -169054.19, 0.00, 0.00, 0.00
73, -168971.30, -168924.11, -169014.98, -169018.05, -169038.17, -169027.66, -169107.91, -169057.13, 0.00, 0.00, 0.00
74, -168971.00, -168923.84, -169014.77, -169017.77, -169037.94, -169027.48, -169107.69, -169056.98, 0.00, 0.00, 0.00
75, -168972.25, -168925.03, -169016.02, -169018.92, -169039.22, -169028.73, -169109.00, -169058.17, 0.00, 0.00, 0.00
76, -168975.56, -168928.28, -169019.33, -169022.23, -169042.42, -169031.89, -169112.22, -169061.42, 0.00, 0.00, 0.00
77, -168975.89, -168928.67, -169019.58, -169022.61, -169042.69, -169032.25, -169112.53, -169061.75, 0.00, 0.00, 0.00
78, -168977.11, -168929.83, -169020.80, -169023.80, -169044.00, -169033.47, -169113.73, -169063.02, 0.00, 0.00, 0.00
79, -168980.33, -168933.08, -169024.06, -169027.02, -169047.25, -169036.67, -169116.98, -169066.20, -128.00, -16.00, 8400.00
80, -168982.13, -168935.00, -169025.88, -169028.88, -169049.08, -169038.61, -169118.81, -169068.05, 0.00, 0.00, 0.00
81, -168982.52, -168935.31, -169026.09, -169029.23, -169049.41, -169039.00, -169119.16, -169068.41, 0.00, 0.00, 0.00
82, -168982.73, -168935.53, -169026.45, -169029.55, -169049.64, -169039.22, -169119.39, -169068.77, 0.00, 0.00, 0.00
83, -168985.34, -168938.14, -169029.00, -169032.17, -169052.20, -169041.72, -169121.98, -169071.36, 0.00, 0.00, 0.00
84, -168988.06, -168940.78, -169031.75, -169034.81, -169054.94, -169044.38, -169124.67, -169074.00, 0.00, 0.00, 0.00
85, -168988.50, -168941.23, -169032.25, -169035.28, -169055.38, -169044.84, -169125.16, -169074.48, 0.00, 0.00, 0.00
86, -168990.00, -168942.72, -169033.75, -169036.81, -169056.88, -169046.39, -169126.69, -169076.09, 0.00, 0.00, 0.00
87, -168991.55, -168944.31, -169035.31, -169038.33, -169058.48, -169048.05, -169128.30, -169077.58, 0.00, 0.00, 0.00
88, -168993.00, -168945.78, -169036.78, -169039.70, -169059.92, -169049.39, -169129.63, -169079.03, 0.00, 0.00, 0.00
89, -168995.45, -168948.25, -169039.17, -169042.23, -169062.42, -169051.80, -169132.14, -169081.48, -128.00, -32.00, 8432.00
90, -168997.00, -168949.70, -169040.72, -169043.80, -169063.89, -169053.44, -169133.72, -169083.05, 0.00, 0.00, 0.00
91, -168996.64, -168949.41, -169040.34, -169043.36, -169063.61, -169052.98, -169133.31, -169082.61, 0.00, 0.00, 0.00
92, -168999.44, -168952.27, -169043.13, -169046.22, -169066.48, -169055.84, -169136.09, -169085.39, 0.00, 0.00, 0.00
93, -169000.11, -168952.92, -169043.88, -169046.89, -169067.16, -169056.67, -169136.84, -169086.19, 0.00, 0.00, 0.00
94, -169000.95, -168953.70, -169044.73, -169047.69, -169067.92, -169057.50, -169137.59, -169087.05, 0.00, 0.00, 0.00
95, -169002.70, -168955.42, -169046.44, -169049.41, -169069.58, -169059.17, -169139.31, -169088.73, 0.00, 0.00, 0.00
96, -169002.89, -168955.59, -169046.50, -169049.66, -169069.75, -169059.31, -169139.53, -169088.84, 0.00, 0.00, 0.00
97, -169004.16, -168956.86, -169047.89, -169050.91, -169071.06, -169060.61, -169140.72, -169090.09, 0.00, 0.00, 0.00
98, -169007.50, -168960.14, -169051.16, -169054.19, -169074.38, -169063.98, -169144.08, -169093.42, 0.00, 0.00, 0.00
99, -169008.95, -168961.61, -169052.45, -169055.53, -169075.72, -169065.28, -169145.50, -169094.83, 0.00, 0.00, 0.00
100, -169009.94, -168962.73, -169053.53, -169056.61, -169076.80, -169066.27, -169146.58, -169095.92, -128.00, -48.00, 8400.00
101, -169010.67, -168963.48, -169054.33, -169057.44, -169077.58, -169067.06, -169147.31, -169096.69, 0.00, 0.00, 0.00
102, -169010.16, -168962.75, -169053.77, -169056.83, -169077.02, -169066.53, -169146.69, -169096.06, 0.00, 0.00, 0.00
103, -169012.08, -168964.66, -169055.63, -169058.63, -169078.94, -169068.45, -169148.61, -169097.92, 0.00, 0.00, 0.00
104, -169013.14, -168965.81, -169056.77, -169059.78, -169080.06, -169069.59, -169149.70, -169099.03, 0.00, 0.00, 0.00
105, -169015.33, -168968.05, -169058.98, -169062.05, -169082.22, -169071.78, -169151.94, -169101.31, 0.00, 0.00, 0.00
106, -169016.02, -168968.67, -169059.61, -169062.70, -169082.84, -169072.41, -169152.59, -169101.94, 0.00, 0.00, 0.00
107, -169018.64, -168971.22, -169062.16, -169065.23, -169085.52, -169074.95, -169155.20, -169104.48, 0.00, 0.00, 0.00
108, -169020.59, -168973.33, -169064.25, -169067.31, -169087.56, -169077.02, -169157.23, -169106.55, 0.00, 0.00, 0.00
109, -169022.86, -168975.58, -169066.48, -169069.61, -169089.73, -169079.30, -169159.47, -169108.80, 0.00, 0.00, 0.00
110, -169023.45, -168976.14, -169067.05, -169070.16, -169090.30, -169079.86, -169159.98, -169109.31, -128.00, -64.00, 8448.00
111, -169025.36, -168978.13, -169069.03, -169072.13, -169092.30, -169081.84, -169162.00, -169111.30, 0.00, 0.00, 0.00
112, -169026.44, -168979.25, -169070.09, -169073.27, -169093.33, -169082.92, -169163.00, -169112.42, 0.00, 0.00, 0.00
113, -169028.89, -168981.66, -169072.64, -169075.72, -169095.81, -169085.28, -169165.48, -169114.91, 0.00, 0.00, 0.00
114, -169029.83, -168982.63, -169073.55, -169076.66, -169096.78, -169086.31, -169166.44, -169115.80, 0.00, 0.00, 0.00
115, -169029.94, -168982.78, -169073.63, -169076.80, -169096.89, -169086.45, -169166.58, -169115.95, 0.00, 0.00, 0.00
116, -169031.98, -168984.75, -169075.63, -169078.77, -169098.86, -169088.53, -169168.69, -169118.02, 0.00, 0.00, 0.00
117, -169033.31, -168986.09, -169077.11, -169080.08, -169100.27, -169089.84, -169170.00, -169119.38, 0.00, 0.00, 0.00
118, -169034.41, -168987.19, -169078.25, -169081.27, -169101.48, -169090.89, -169171.14, -169120.48, 0.00, 0.00, 0.00
119, -169037.05, -168989.83, -169080.77, -169083.88, -169104.11, -169093.56, -169173.75, -169123.13, 0.00, 0.00, 0.00
120, -169037.23, -168990.00, -169080.92, -169084.03, -169104.23, -169093.73, -169174.02, -169123.22, 0.00, 0.00, 0.00
121, -169036.94, -168989.73, -169080.69, -169083.75, -169103.81, -169093.33, -169173.63, -169122.88, -144.00, -48.00, 8432.00
122, -169040.73, -168993.59, -169084.50, -169087.52, -169107.64, -169097.11, -169177.36, -169126.70, 0.00, 0.00, 0.00
123, -169045.44, -168998.30, -169089.20, -169092.19, -169112.33, -169101.89, -169182.00, -169131.33, 0.00, 0.00, 0.00
124, -169045.81, -168998.67, -169089.59, -169092.70, -169112.89, -169102.36, -169182.50, -169131.78, 0.00, 0.00, 0.00
125, -169047.69, -169000.45, -169091.36, -169094.47, -169114.70, -169104.20, -169184.23, -169133.63, 0.00, 0.00, 0.00
126, -169050.17, -169002.98, -169093.80, -169096.94, -169117.09, -169106.72, -169186.73, -169136.22, 0.00, 0.00, 0.00
127, -169049.64, -169002.41, -169093.31, -169096.44, -169116.63, -169106.16, -169186.19, -169135.69, 0.00, 0.00, 0.00
128, -169048.30, -169001.06, -169092.02, -169095.08, -169115.23, -169104.73, -169184.89, -169134.30, 0.00, 0.00, 0.00
129, -169050.11, -169002.98, -169093.78, -169096.91, -169117.06, -169106.66, -169186.77, -169136.11, 0.00, 0.00, 0.00
130, -169053.41, -169006.36, -169097.17, -169100.31, -169120.44, -169110.05, -169190.09, -169139.53, 0.00, 0.00, 0.00
131, -169054.16, -169007.05, -169097.88, -169100.98, -169121.09, -169110.77, -169190.81, -169140.27, 0.00, 0.00, 0.00
132, -169055.11, -169007.81, -169098.72, -169101.80, -169121.97, -169111.55, -169191.66, -169141.03, -128.00, -48.00, 8336.00
133, -169057.30, -169010.08, -169100.89, -169104.03, -169124.17, -169113.67, -169193.84, -169143.22, 0.00, 0.00, 0.00
134, -169059.36, -169012.08, -169102.92, -169106.05, -169126.13, -169115.61, -169195.92, -169145.19, 0.00, 0.00, 0.00
135, -169062.73, -169015.42, -169106.25, -169109.36, -169129.50, -169118.98, -169199.14, -169148.56, 0.00, 0.00, 0.00
136, -169063.67, -169016.36, -169107.09, -169110.30, -169130.55, -169120.02, -169200.08, -169149.48, 0.00, 0.00, 0.00
137, -169062.80, -169015.38, -169106.19, -169109.41, -169129.63, -169119.13, -169199.25, -169148.67, 0.00, 0.00, 0.00
138, -169064.88, -169017.50, -169108.28, -169111.44, -169131.67, -169121.16, -169201.34, -169150.75, 0.00, 0.00, 0.00
139, -169065.33, -169018.03, -169108.86, -169111.97, -169132.11, -169121.67, -169201.81, -169151.22, 0.00, 0.00, 0.00
140, -169066.20, -169018.92, -169109.78, -169112.88, -169133.00, -169122.64, -169202.67, -169152.13, 0.00, 0.00, 0.00
141, -169068.17, -169020.91, -169111.86, -169114.91, -169135.13, -169124.69, -169204.80, -169154.22, 0.00, 0.00, 0.00
142, -169071.55, -169024.13, -169115.06, -169118.09, -169138.34, -169127.89, -169208.09, -169157.42, -176.00, -32.00, 8352.00
143, -169072.77, -169025.39, -169116.36, -169119.39, -169139.58, -169129.09, -169209.20, -169158.63, 0.00, 0.00, 0.00
144, -169072.48, -169025.20, -169116.13, -169119.16, -169139.42, -169128.89, -169209.03, -169158.48, 0.00, 0.00, 0.00
145, -169073.64, -169026.30, -169117.30, -169120.27, -169140.55, -169130.03, -169210.14, -169159.61, 0.00, 0.00, 0.00
146, -169074.94, -169027.55, -169118.64, -169121.67, -169141.75, -169131.31, -169211.47, -169160.81, 0.00, 0.00, 0.00
147, -169077.27, -169029.89, -169120.94, -169124.11, -169144.16, -169133.67, -169213.83, -169163.22, 0.00, 0.00, 0.00
148, -169077.69, -169030.41, -169121.41, -169124.48, -169144.56, -169134.11, -169214.30, -169163.73, 0.00, 0.00, 0.00
149, -169078.80, -169031.58, -169122.59, -169125.59, -169145.75, -169135.20, -169215.47, -169164.91, 0.00, 0.00, 0.00
150, -169081.28, -169034.03, -169125.09, -169128.05, -169148.25, -169137.72, -169217.97, -169167.45, 0.00, 0.00, 0.00
151, -169082.83, -169035.59, -169126.55, -169129.52, -169149.81, -169139.31, -169219.48, -169168.97, 0.00, 0.00, 0.00
152, -169086.41, -169039.22, -169130.14, -169133.16, -169153.39, -169143.02, -169223.08, -169172.55, 0.00, 0.00, 0.00
153, -169088.86, -169041.63, -169132.63, -169135.67, -169155.81, -169145.38, -169225.59, -169175.00, -128.00, -32.00, 8416.00
154, -169088.77, -169041.50, -169132.56, -169135.48, -169155.69, -169145.25, -169225.39, -169174.98, 0.00, 0.00, 0.00
155, -169089.31, -169042.06, -169132.98, -169136.06, -169156.16, -169145.75, -169225.81, -169175.34, 0.00, 0.00, 0.00
156, -169091.19, -169043.94, -169134.77, -169137.91, -169158.02, -169147.63, -169227.69, -169177.20, 0.00, 0.00, 0.00
157, -169092.14, -169044.83, -169135.78, -169138.86, -169158.88, -169148.47, -169228.69, -169178.14, 0.00, 0.00, 0.00
158, -169094.20, -169046.84, -169137.91, -169140.88, -169160.98, -169150.64, -169230.84, -169180.28, 0.00, 0.00, 0.00
159, -169096.22, -169048.86, -169139.84, -169142.91, -169163.06, -169152.59, -169232.73, -169182.19, 0.00, 0.00, 0.00
160, -169097.36, -169050.06, -169140.98, -169144.14, -169164.23, -169153.69, -169233.97, -169183.33, 0.00, 0.00, 0.00
161, -169096.69, -169049.45, -169140.38, -169143.48, -169163.56, -169153.03, -169233.30, -169182.72, 0.00, 0.00, 0.00
162, -169097.52, -169050.27, -169141.23, -169144.34, -169164.34, -169153.95, -169234.13, -169183.61, 0.00, 0.00, 0.00
163, -169098.78, -169051.58, -169142.48, -169145.56, -169165.66, -169155.30, -169235.38, -169184.91, -128.00, -112.00, 8432.00
164, -169099.95, -169052.73, -169143.73, -169146.73, -169166.92, -169156.45, -169236.58, -169186.09, 0.00, 0.00, 0.00
165, -169100.80, -169053.53, -169144.50, -169147.61, -169167.72, -169157.27, -169237.44, -169186.89, 0.00, 0.00, 0.00
166, -169103.33, -169055.98, -169147.06, -169150.19, -169170.31, -169159.81, -169240.03, -169189.36, 0.00, 0.00, 0.00
167, -169104.52, -169057.25, -169148.23, -169151.25, -169171.34, -169160.86, -169241.19, -169190.56, 0.00, 0.00, 0.00
168, -169106.78, -169059.58, -169150.48, -169153.45, -169173.63, -169163.11, -169243.30, -169192.91, 0.00, 0.00, 0.00
169, -169109.67, -169062.42, -169153.34, -169156.30, -169176.44, -169166.05, -169246.11, -169195.80, 0.00, 0.00, 0.00
170, -169112.22, -169065.03, -169155.97, -169158.98, -169179.05, -169168.66, -169248.81, -169198.36, 0.00, 0.00, 0.00
171, -169111.81, -169064.59, -169155.47, -169158.58, -169178.66, -169168.25, -169248.39, -169197.88, 0.00, 0.00, 0.00
172, -169113.47, -169066.11, -169157.08, -169160.17, -169180.27, -169169.75, -169250.02, -169199.50, 0.00, 0.00, 0.00
173, -169116.16, -169068.92, -169159.88, -169162.94, -169182.97, -169172.50, -169252.80, -169202.19, 0.00, 0.00, 0.00
174, -169116.67, -169069.48, -169160.41, -169163.41, -169183.56, -169173.06, -169253.22, -169202.72, -128.00, -48.00, 8448.00
175, -169119.11, -169071.97, -169162.78, -169165.86, -169185.98, -169175.55, -169255.61, -169205.16, 0.00, 0.00, 0.00
176, -169119.69, -169072.45, -169163.38, -169166.52, -169186.56, -169176.13, -169256.28, -169205.73, 0.00, 0.00, 0.00
177, -169122.56, -169075.31, -169166.20, -169169.33, -169189.42, -169178.98, -169259.09, -169208.63, 0.00, 0.00, 0.00
178, -169122.44, -169075.16, -169166.06, -169169.19, -169189.31, -169178.89, -169258.98, -169208.47, 0.00, 0.00, 0.00
179, -169123.11, -169075.88, -169166.77, -169170.00, -169189.98, -169179.63, -169259.70, -169209.25, 0.00, 0.00, 0.00
180, -169126.50, -169079.25, -169170.22, -169173.38, -169193.38, -169183.03, -169263.14, -169212.59, 0.00, 0.00, 0.00
181, -169128.17, -169081.00, -169171.98, -169175.05, -169195.13, -169184.70, -169264.81, -169214.39, 0.00, 0.00, 0.00
182, -169130.03, -169082.81, -169173.73, -169176.86, -169196.86, -169186.56, -169266.61, -169216.16, 0.00, 0.00, 0.00
183, -169131.17, -169083.94, -169174.83, -169177.95, -169197.98, -169187.72, -169267.72, -169217.20, 0.00, 0.00, 0.00
184, -169130.53, -169083.31, -169174.31, -169177.36, -169197.38, -169187.08, -169267.16, -169216.58, -128.00, -32.00, 8416.00
185, -169133.13, -169085.83, -169176.89, -169179.97, -169200.05, -169189.64, -169269.78, -169219.17, 0.00, 0.00, 0.00
186, -169135.11, -169087.88, -169178.92, -169181.95, -169202.03, -169191.69, -169271.78, -169221.23, 0.00, 0.00, 0.00
187, -169134.70, -169087.50, -169178.38, -169181.58, -169201.72, -169191.33, -169271.28, -169220.83, 0.00, 0.00, 0.00
188, -169135.95, -169088.69, -169179.56, -169182.69, -169202.86, -169192.47, -169272.53, -169222.03, 0.00, 0.00, 0.00
189, -169139.64, -169092.42, -169183.30, -169186.47, -169206.50, -169196.17, -169276.28, -169225.70, 0.00, 0.00, 0.00
190, -169141.36, -169094.16, -169185.06, -169188.22, -169208.27, -169197.88, -169277.98, -169227.39, 0.00, 0.00, 0.00
191, -169139.98, -169092.81, -169183.66, -169186.81, -169206.95, -169196.55, -169276.61, -169226.02, 0.00, 0.00, 0.00
192, -169140.14, -169092.89, -169183.83, -169187.03, -169207.11, -169196.70, -169276.73, -169226.27, 0.00, 0.00, 0.00
193, -169144.83, -169097.58, -169188.53, -169191.64, -169211.69, -169201.38, -169281.41, -169230.95, 0.00, 0.00, 0.00
194, -169146.89, -169099.64, -169190.45, -169193.69, -169213.70, -169203.39, -169283.36, -169232.97, 0.00, 0.00, 0.00
195, -169148.14, -169100.94, -169191.80, -169195.02, -169215.11, -169204.64, -169284.70, -169234.27, -112.00, -32.00, 8368.00
196, -169149.22, -169102.08, -169192.91, -169196.08, -169216.16, -169205.77, -169285.77, -169235.36, 0.00, 0.00, 0.00
197, -169150.86, -169103.72, -169194.61, -169197.73, -169217.88, -169207.44, -169287.48, -169237.03, 0.00, 0.00, 0.00
198, -169151.47, -169104.16, -169195.14, -169198.19, -169218.39, -169207.89, -169288.02, -169237.50, 0.00, 0.00, 0.00
199, -169152.66, -169105.33, -169196.38, -169199.41, -169219.63, -169209.19, -169289.30, -169238.73, 0.00, 0.00, 0.00
200, -169154.44, -169107.34, -169198.31, -169201.30, -169221.45, -169211.17, -169291.22, -169240.61, 0.00, 0.00, 0.00
201, -169155.81, -169108.73, -169199.70, -169202.66, -169222.86, -169212.38, -169292.59, -169241.92, 0.00, 0.00, 0.00
202, -169157.19, -169110.05, -169200.98, -169204.05, -169224.20, -169213.78, -169293.88, -169243.31, 0.00, 0.00, 0.00
203, -169157.97, -169110.75, -169201.66, -169204.80, -169224.92, -169214.59, -169294.55, -169244.14, 0.00, 0.00, 0.00
204, -169159.89, -169112.72, -169203.69, -169206.80, -169226.95, -169216.61, -169296.59, -169246.08, 0.00, 0.00, 0.00
205, -169161.81, -169114.59, -169205.58, -169208.64, -169228.83, -169218.44, -169298.52, -169248.00, 0.00, 0.00, 0.00
206, -169162.73, -169115.50, -169206.50, -169209.52, -169229.67, -169219.28, -169299.42, -169248.81, -64.00, -48.00, 8336.00
207, -169165.64, -169118.36, -169209.41, -169212.36, -169232.56, -169222.17, -169302.25, -169251.67, 0.00, 0.00, 0.00
208, -169166.25, -169118.97, -169209.98, -169212.95, -169233.19, -169222.80, -169302.88, -169252.30, 0.00, 0.00, 0.00
209, -169166.95, -169119.69, -169210.52, -169213.63, -169233.88, -169223.39, -169303.50, -169252.95, 0.00, 0.00, 0.00
210, -169169.17, -169121.88, -169212.73, -169215.94, -169236.16, -169225.70, -169305.72, -169255.20, 0.00, 0.00, 0.00
211, -169169.11, -169121.88, -169212.73, -169215.91, -169236.16, -169225.70, -169305.70, -169255.16, 0.00, 0.00, 0.00
212, -169169.53, -169122.28, -169213.19, -169216.20, -169236.55, -169226.03, -169306.14, -169255.56, 0.00, 0.00, 0.00
213, -169171.50, -169124.27, -169215.19, -169218.25, -169238.55, -169228.09, -169308.17, -169257.58, 0.00, 0.00, 0.00
214, -169174.53, -169127.36, -169218.25, -169221.34, -169241.64, -169231.20, -169311.19, -169260.61, 0.00, 0.00, 0.00
215, -169175.47, -169128.20, -169219.16, -169222.28, -169242.39, -169232.00, -169312.14, -169261.47, 0.00, 0.00, 0.00
216, -169174.30, -169126.97, -169217.83, -169221.08, -169241.17, -169230.77, -169310.88, -169260.30, -112.00, -32.00, 8368.00
217, -169177.38, -169129.98, -169220.84, -169224.09, -169244.19, -169233.88, -169313.97, -169263.41, 0.00, 0.00, 0.00
218, -169180.42, -169133.13, -169224.06, -169227.11, -169247.30, -169237.05, -169317.00, -169266.42, 0.00, 0.00, 0.00
219, -169181.53, -169134.22, -169225.23, -169228.27, -169248.50, -169238.06, -169318.08, -169267.55, 0.00, 0.00, 0.00
220, -169181.02, -169133.77, -169224.77, -169227.80, -169248.00, -169237.59, -169317.67, -169267.09, 0.00, 0.00, 0.00
221, -169182.63, -169135.44, -169226.38, -169229.39, -169249.58, -169239.16, -169319.28, -169268.77, 0.00, 0.00, 0.00
222, -169181.84, -169134.69, -169225.61, -169228.72, -169248.77, -169238.42, -169318.50, -169267.98, 0.00, 0.00, 0.00
223, -169184.64, -169137.44, -169228.34, -169231.36, -169251.52, -169241.08, -169321.23, -169270.69, 0.00, 0.00, 0.00
224, -169184.73, -169137.56, -169228.45, -169231.53, -169251.69, -169241.19, -169321.36, -169270.77, 0.00, 0.00, 0.00
225, -169187.33, -169140.16, -169231.09, -169234.08, -169254.38, -169243.94, -169324.00, -169273.47, 0.00, 0.00, 0.00
226, -169189.48, -169142.31, -169233.17, -169236.27, -169256.44, -169246.06, -169326.08, -169275.55, 0.00, 0.00, 0.00
227, -169191.86, -169144.83, -169235.69, -169238.78, -169258.89, -169248.56, -169328.63, -169278.09, -96.00, -64.00, 8432.00
228, -169193.67, -169146.53, -169237.44, -169240.50, -169260.66, -169250.23, -169330.33, -169279.86, 0.00, 0.00, 0.00
229, -169193.58, -169146.53, -169237.33, -169240.45, -169260.56, -169250.13, -169330.22, -169279.75, 0.00, 0.00, 0.00
230, -169194.27, -169147.11, -169238.02, -169241.06, -169261.23, -169250.89, -169331.00, -169280.42, 0.00, 0.00, 0.00
231, -169196.70, -169149.44, -169240.42, -169243.48, -169263.73, -169253.30, -169333.38, -169282.73, 0.00, 0.00, 0.00
232, -169198.72, -169151.45, -169242.42, -169245.45, -169265.67, -169255.27, -169335.30, -169284.70, 0.00, 0.00, 0.00
233, -169200.63, -169153.41, -169244.30, -169247.38, -169267.63, -169257.11, -169337.23, -169286.66, 0.00, 0.00, 0.00
234, -169201.78, -169154.44, -169245.38, -169248.50, -169268.69, -169258.22, -169338.31, -169287.80, 0.00, 0.00, 0.00
235, -169204.88, -169157.70, -169248.52, -169251.58, -169271.86, -169261.48, -169341.48, -169290.86, 0.00, 0.00, 0.00
236, -169207.94, -169160.72, -169251.63, -169254.64, -169274.92, -169264.45, -169344.44, -169293.88, 0.00, 0.00, 0.00
237, -169206.77, -169159.56, -169250.58, -169253.69, -169273.80, -169263.39, -169343.34, -169292.78, -112.00, -64.00, 8432.00
238, -169206.30, -169159.06, -169250.06, -169253.19, -169273.38, -169262.98, -169342.94, -169292.38, 0.00, 0.00, 0.00
239, -169207.42, -169160.17, -169251.22, -169254.36, -169274.50, -169264.14, -169344.09, -169293.52, 0.00, 0.00, 0.00
240, -169209.81, -169162.56, -169253.59, -169256.66, -169276.81, -169266.48, -169346.52, -169295.89, 0.00, 0.00, 0.00
241, -169211.33, -169164.13, -169255.16, -169258.11, -169278.22, -169267.97, -169347.98, -169297.38, 0.00, 0.00, 0.00
242, -169212.67, -169165.47, -169256.48, -169259.45, -169279.66, -169269.31, -169349.30, -169298.75, 0.00, 0.00, 0.00
243, -169214.53, -169167.31, -169258.33, -169261.33, -169281.58, -169271.13, -169351.19, -169300.58, 0.00, 0.00, 0.00
244, -169215.27, -169167.97, -169259.05, -169262.06, -169282.27, -169271.86, -169351.81, -169301.38, 0.00, 0.00, 0.00
245, -169218.77, -169171.50, -169262.52, -169265.44, -169285.67, -169275.28, -169355.27, -169304.80, 0.00, 0.00, 0.00
246, -169220.89, -169173.67, -169264.59, -169267.61, -169287.77, -169277.41, -169357.44, -169306.91, 0.00, 0.00, 0.00
247, -169221.56, -169174.38, -169265.33, -169268.39, -169288.59, -169278.19, -169358.25, -169307.69, 0.00, 0.00, 0.00
248, -169222.73, -169175.56, -169266.53, -169269.55, -169289.73, -169279.39, -169359.31, -169308.89, -128.00, -64.00, 8352.00
249, -169222.70, -169175.52, -169266.47, -169269.58, -169289.67, -169279.23, -169359.44, -169308.89, 0.00, 0.00, 0.00
250, -169223.31, -169176.03, -169266.95, -169270.11, -169290.19, -169279.80, -169359.86, -169309.34, 0.00, 0.00, 0.00
251, -169224.36, -169177.13, -169267.98, -169271.13, -169291.23, -169280.89, -169360.86, -169310.34, 0.00, 0.00, 0.00
252, -169227.53, -169180.33, -169271.23, -169274.30, -169294.39, -169284.11, -169364.08, -169313.55, 0.00, 0.00, 0.00
253, -169228.66, -169181.42, -169272.30, -169275.45, -169295.50, -169285.22, -169365.17, -169314.70, 0.00, 0.00, 0.00
254, -169230.75, -169183.59, -169274.34, -169277.53, -169297.73, -169287.33, -169367.31, -169316.92, 0.00, 0.00, 0.00
255, -169232.25, -169185.06, -169275.91, -169279.02, -169299.22, -169288.84, -169368.84, -169318.39, 0.00, 0.00, 0.00
0, -169233.56, -169186.34, -169277.28, -169280.31, -169300.52, -169290.16, -169370.19, -169319.63, 0.00, 0.00, 0.00
1, -169236.41, -169189.16, -169280.13, -169283.19, -169303.42, -169293.06, -169373.02, -169322.42, 0.00, 0.00, 0.00
2, -169237.70, -169190.39, -169281.28, -169284.48, -169304.64, -169294.28, -169374.34, -169323.73, -128.00, -80.00, 8432.00
3, -169237.97, -169190.67, -169281.63, -169284.64, -169304.89, -169294.45, -169374.63, -169323.98, 0.00, 0.00, 0.00
4, -169240.56, -169193.33, -169284.28, -169287.17, -169307.38, -169297.00, -169377.17, -169326.55, 0.00, 0.00, 0.00
5, -169241.28, -169194.08, -169285.00, -169288.00, -169308.20, -169297.78, -169377.89, -169327.33, 0.00, 0.00, 0.00
6, -169242.91, -169195.70, -169286.66, -169289.69, -169309.89, -169299.45, -169379.61, -169328.98, 0.00, 0.00, 0.00
7, -169246.47, -169199.28, -169290.19, -169293.25, -169313.50, -169302.98, -169383.22, -169332.50, 0.00, 0.00, 0.00
8, -169246.00, -169198.77, -169289.72, -169292.83, -169313.05, -169302.66, -169382.66, -169332.05, 0.00, 0.00, 0.00
9, -169246.69, -169199.44, -169290.39, -169293.42, -169313.59, -169303.30, -169383.25, -169332.70, 0.00, 0.00, 0.00
10, -169249.77, -169202.50, -169293.47, -169296.48, -169316.67, -169306.41, -169386.39, -169335.80, 0.00, 0.00, 0.00
11, -169249.30, -169202.08, -169293.05, -169296.11, -169316.30, -169305.98, -169385.97, -169335.41, 0.00, 0.00, 0.00
12, -169251.20, -169204.02, -169294.98, -169298.00, -169318.19, -169307.81, -169387.77, -169337.30, 0.00, 0.00, 0.00
13, -169254.83, -169207.69, -169298.64, -169301.70, -169321.86, -169311.55, -169391.42, -169341.06, -128.00, -64.00, 8320.00
14, -169255.03, -169207.75, -169298.77, -169301.70, -169321.95, -169311.64, -169391.53, -169340.98, 0.00, 0.00, 0.00
15, -169256.05, -169208.89, -169299.75, -169302.77, -169323.05, -169312.69, -169392.63, -169342.16, 0.00, 0.00, 0.00
16, -169255.83, -169208.75, -169299.58, -169302.70, -169322.86, -169312.48, -169392.44, -169341.97, 0.00, 0.00, 0.00
17, -169258.20, -169211.08, -169301.98, -169305.05, -169325.20, -169314.84, -169394.86, -169344.34, 0.00, 0.00, 0.00
18, -169260.09, -169212.92, -169303.89, -169307.00, -169327.17, -169316.73, -169396.80, -169346.33, 0.00, 0.00, 0.00
19, -169260.80, -169213.63, -169304.63, -169307.66, -169327.89, -169317.44, -169397.47, -169346.95, 0.00, 0.00, 0.00
20, -169262.83, -169215.59, -169306.59, -169309.58, -169329.84, -169319.53, -169399.48, -169348.97, 0.00, 0.00, 0.00
21, -169264.77, -169217.56, -169308.56, -169311.58, -169331.84, -169321.55, -169401.45, -169350.94, 0.00, 0.00, 0.00
22, -169266.63, -169219.44, -169310.45, -169313.47, -169333.70, -169323.36, -169403.28, -169352.77, 0.00, 0.00, 0.00
23, -169269.02, -169221.78, -169312.80, -169315.73, -169336.05, -169325.75, -169405.70, -169355.08, 0.00, 0.00, 0.00
24, -169270.25, -169223.13, -169314.09, -169317.05, -169337.28, -169327.06, -169407.06, -169356.41, -64.00, -48.00, 8448.00
25, -169270.38, -169223.13, -169314.14, -169317.09, -169337.34, -169327.05, -169407.05, -169356.45, 0.00, 0.00, 0.00
26, -169271.31, -169224.17, -169315.08, -169318.06, -169338.28, -169327.94, -169407.86, -169357.34, 0.00, 0.00, 0.00
27, -169272.58, -169225.47, -169316.42, -169319.39, -169339.61, -169329.34, -169409.25, -169358.72, 0.00, 0.00, 0.00
28, -169273.63, -169226.53, -169317.44, -169320.52, -169340.61, -169330.38, -169410.30, -169359.75, 0.00, 0.00, 0.00
29, -169275.09, -169227.89, -169318.81, -169321.92, -169342.16, -169331.84, -169411.70, -169361.13, 0.00, 0.00, 0.00
30, -169277.53, -169230.34, -169321.23, -169324.31, -169344.55, -169334.23, -169414.11, -169363.66, 0.00, 0.00, 0.00
31, -169279.97, -169232.86, -169323.75, -169326.84, -169346.94, -169336.61, -169416.63, -169366.11, 0.00, 0.00, 0.00
32, -169278.36, -169231.22, -169322.19, -169325.28, -169345.38, -169335.05, -169415.08, -169364.50, 0.00, 0.00, 0.00
33, -169279.77, -169232.61, -169323.58, -169326.64, -169346.80, -169336.52, -169416.41, -169365.91, 0.00, 0.00, 0.00
34, -169280.69, -169233.45, -169324.56, -169327.58, -169347.78, -169337.41, -169417.44, -169366.81, -176.00, -32.00, 8256.00
35, -169281.80, -169234.59, -169325.80, -169328.66, -169348.86, -169338.53, -169418.55, -169367.92, 0.00, 0.00, 0.00
36, -169285.58, -169238.44, -169329.56, -169332.42, -169352.67, -169342.33, -169422.38, -169371.77, 0.00, 0.00, 0.00
37, -169289.64, -169242.39, -169333.41, -169336.39, -169356.53, -169346.36, -169426.27, -169375.70, 0.00, 0.00, 0.00
38, -169292.94, -169245.66, -169336.72, -169339.73, -169359.91, -169349.70, -169429.61, -169379.09, 0.00, 0.00, 0.00
39, -169290.70, -169243.47, -169334.48, -169337.56, -169357.75, -169347.41, -169427.42, -169376.84, 0.00, 0.00, 0.00
40, -169291.59, -169244.31, -169335.33, -169338.42, -169358.63, -169348.25, -169428.30, -169377.69, 0.00, 0.00, 0.00
41, -169293.77, -169246.55, -169337.59, -169340.52, -169360.77, -169350.38, -169430.44, -169379.86, 0.00, 0.00, 0.00
42, -169296.75, -169249.61, -169340.56, -169343.67, -169363.83, -169353.48, -169433.53, -169382.91, 0.00, 0.00, 0.00
43, -169299.34, -169252.19, -169343.16, -169346.28, -169366.45, -169356.14, -169436.19, -169385.52, 0.00, 0.00, 0.00
44, -169297.73, -169250.58, -169341.55, -169344.66, -169364.84, -169354.63, -169434.58, -169383.91, 0.00, 0.00, 0.00
45, -169298.86, -169251.67, -169342.58, -169345.64, -169365.80, -169355.63, -169435.56, -169385.00, -112.00, -80.00, 8432.00
46, -169302.66, -169255.61, -169346.42, -169349.42, -169369.59, -169359.39, -169439.31, -169388.80, 0.00, 0.00, 0.00
47, -169305.31, -169258.28, -169349.13, -169352.25, -169372.38, -169362.05, -169442.06, -169391.50, 0.00, 0.00, 0.00
48, -169306.97, -169259.94, -169350.75, -169353.84, -169374.00, -169363.66, -169443.67, -169393.05, 0.00, 0.00, 0.00
49, -169306.34, -169259.27, -169350.13, -169353.23, -169373.36, -169363.08, -169443.05, -169392.48, 0.00, 0.00, 0.00
50, -169306.50, -169259.41, -169350.31, -169353.42, -169373.44, -169363.20, -169443.23, -169392.72, 0.00, 0.00, 0.00
51, -169307.69, -169260.61, -169351.50, -169354.61, -169374.72, -169364.45, -169444.34, -169393.86, 0.00, 0.00, 0.00
52, -169309.78, -169262.72, -169353.63, -169356.64, -169376.84, -169366.63, -169446.44, -169395.94, 0.00, 0.00, 0.00
53, -169311.38, -169264.30, -169355.19, -169358.30, -169378.45, -169368.19, -169448.05, -169397.58, 0.00, 0.00, 0.00
54, -169312.45, -169265.33, -169356.19, -169359.41, -169379.50, -169369.22, -169449.11, -169398.61, 0.00, 0.00, 0.00
55, -169314.09, -169266.95, -169357.95, -169361.05, -169381.09, -169370.83, -169450.78, -169400.27, -144.00, -80.00, 8336.00
56, -169314.56, -169267.44, -169358.30, -169361.42, -169381.53, -169371.25, -169451.27, -169400.78, 0.00, 0.00, 0.00
57, -169315.38, -169268.28, -169359.03, -169362.17, -169382.41, -169372.03, -169451.98, -169401.58, 0.00, 0.00, 0.00
58, -169318.69, -169271.55, -169362.41, -169365.47, -169385.73, -169375.30, -169455.30, -169404.80, 0.00, 0.00, 0.00
59, -169319.91, -169272.86, -169363.63, -169366.67, -169386.86, -169376.47, -169456.53, -169406.02, 0.00, 0.00, 0.00
60, -169321.75, -169274.66, -169365.53, -169368.55, -169388.69, -169378.31, -169458.38, -169407.86, 0.00, 0.00, 0.00
61, -169321.88, -169274.69, -169365.67, -169368.73, -169388.89, -169378.58, -169458.61, -169408.09, 0.00, 0.00, 0.00
62, -169323.88, -169276.70, -169367.52, -169370.66, -169390.92, -169380.59, -169460.50, -169410.02, 0.00, 0.00, 0.00
63, -169327.41, -169280.27, -169371.08, -169374.16, -169394.44, -169384.13, -169464.03, -169413.66, 0.00, 0.00, 0.00
64, -169328.42, -169281.31, -169372.14, -169375.17, -169395.44, -169385.16, -169465.11, -169414.64, 0.00, 0.00, 0.00
65, -169327.20, -169280.11, -169370.94, -169373.89, -169394.20, -169383.86, -169463.81, -169413.34, 0.00, 0.00, 0.00
66, -169326.47, -169279.30, -169370.19, -169373.27, -169393.52, -169383.08, -169463.03, -169412.61, -96.00, -64.00, 8416.00
67, -169329.08, -169281.88, -169372.78, -169375.84, -169396.13, -169385.78, -169465.69, -169415.13, 0.00, 0.00, 0.00
68, -169332.20, -169285.05, -169375.88, -169378.98, -169399.31, -169388.95, -169468.81, -169418.30, 0.00, 0.00, 0.00
69, -169334.13, -169286.98, -169377.78, -169380.94, -169401.14, -169390.88, -169470.70, -169420.30, 0.00, 0.00, 0.00
70, -169335.56, -169288.47, -169379.22, -169382.36, -169402.61, -169392.41, -169472.17, -169421.72, 0.00, 0.00, 0.00
71, -169336.00, -169288.80, -169379.70, -169382.77, -169403.02, -169392.73, -169472.59, -169422.17, 0.00, 0.00, 0.00
72, -169337.53, -169290.34, -169381.16, -169384.31, -169404.48, -169394.23, -169474.08, -169423.63, 0.00, 0.00, 0.00
73, -169338.84, -169291.69, -169382.45, -169385.67, -169405.78, -169395.53, -169475.34, -169424.89, 0.00, 0.00, 0.00
74, -169342.27, -169295.11, -169385.88, -169388.95, -169409.25, -169398.97, -169478.81, -169428.27, 0.00, 0.00, 0.00
75, -169345.45, -169298.23, -169389.05, -169392.13, -169412.30, -169402.09, -169481.98, -169431.41, 0.00, 0.00, 0.00
76, -169345.73, -169298.50, -169389.27, -169392.31, -169412.50, -169402.33, -169482.20, -169431.61, -112.00, -64.00, 8368.00
77, -169345.95, -169298.81, -169389.61, -169392.67, -169412.78, -169402.72, -169482.55, -169431.89, 0.00, 0.00, 0.00
78, -169348.86, -169301.70, -169392.58, -169395.64, -169415.75, -169405.63, -169485.47, -169434.94, 0.00, 0.00, 0.00
79, -169351.25, -169304.20, -169394.88, -169398.05, -169418.19, -169407.95, -169487.86, -169437.30, 0.00, 0.00, 0.00
80, -169352.41, -169305.31, -169396.02, -169399.22, -169419.36, -169409.09, -169489.00, -169438.41, 0.00, 0.00, 0.00
81, -169350.53, -169303.48, -169394.19, -169397.36, -169417.45, -169407.28, -169487.14, -169436.61, 0.00, 0.00, 0.00
82, -169352.95, -169306.02, -169396.72, -169399.89, -169420.03, -169409.86, -169489.77, -169439.05, 0.00, 0.00, 0.00
83, -169354.41, -169307.44, -169398.17, -169401.39, -169421.52, -169411.31, -169491.23, -169440.56, 0.00, 0.00, 0.00
84, -169356.23, -169309.25, -169400.00, -169403.13, -169423.28, -169413.00, -169493.00, -169442.33, 0.00, 0.00, 0.00
85, -169359.36, -169312.31, -169403.17, -169406.23, -169426.44, -169416.19, -169496.14, -169445.53, 0.00, 0.00, 0.00
86, -169361.48, -169314.44, -169405.34, -169408.41, -169428.59, -169418.33, -169498.33, -169447.70, 0.00, 0.00, 0.00
87, -169362.83, -169315.78, -169406.61, -169409.75, -169429.86, -169419.59, -169499.63, -169448.95, -48.00, -48.00, 8416.00
88, -169362.83, -169315.78, -169406.48, -169409.66, -169429.80, -169419.58, -169499.58, -169448.88, 0.00, 0.00, 0.00
89, -169362.89, -169315.73, -169406.50, -169409.61, -169429.72, -169419.58, -169499.55, -169448.88, 0.00, 0.00, 0.00
90, -169364.58, -169317.34, -169408.16, -169411.16, -169431.48, -169421.19, -169501.13, -169450.45, 0.00, 0.00, 0.00
91, -169367.64, -169320.41, -169411.23, -169414.22, -169434.52, -169424.23, -169504.19, -169453.48, 0.00, 0.00, 0.00
92, -169370.42, -169323.20, -169414.02, -169417.09, -169437.33, -169427.02, -169507.00, -169456.28, 0.00, 0.00, 0.00
93, -169370.27, -169323.00, -169413.83, -169416.98, -169437.11, -169426.91, -169506.84, -169456.19, 0.00, 0.00, 0.00
94, -169371.23, -169324.05, -169414.84, -169417.97, -169438.11, -169427.94, -169507.80, -169457.31, 0.00, 0.00, 0.00
95, -169374.19, -169327.05, -169417.81, -169420.98, -169441.13, -169430.94, -169510.84, -169460.23, 0.00, 0.00, 0.00
96, -169374.23, -169327.02, -169417.83, -169420.98, -169441.11, -169430.94, -169510.73, -169460.14, 0.00, 0.00, 0.00
97, -169376.38, -169329.19, -169419.98, -169423.06, -169443.34, -169432.98, -169512.86, -169462.30, 0.00, 0.00, 0.00
98, -169377.89, -169330.75, -169421.55, -169424.63, -169444.81, -169434.58, -169514.44, -169463.86, -128.00, 0.00, 8336.00
99, -169377.64, -169330.53, -169421.34, -169424.42, -169444.55, -169434.44, -169514.19, -169463.66, 0.00, 0.00, 0.00
100, -169377.56, -169330.48, -169421.33, -169424.45, -169444.48, -169434.42, -169514.22, -169463.64, 0.00, 0.00, 0.00
101, -169380.08, -169332.97, -169423.80, -169426.95, -169447.08, -169436.86, -169516.70, -169466.14, 0.00, 0.00, 0.00
102, -169381.84, -169334.73, -169425.59, -169428.63, -169448.81, -169438.67, -169518.42, -169467.80, 0.00, 0.00, 0.00
103, -169382.39, -169335.25, -169426.02, -169429.23, -169449.31, -169439.19, -169519.00, -169468.38, 0.00, 0.00, 0.00
104, -169383.77, -169336.47, -169427.36, -169430.48, -169450.61, -169440.44, -169520.23, -169469.64, 0.00, 0.00, 0.00
105, -169384.67, -169337.41, -169428.27, -169431.41, -169451.52, -169441.34, -169521.19, -169470.50, 0.00, 0.00, 0.00
106, -169385.69, -169338.48, -169429.28, -169432.44, -169452.59, -169442.48, -169522.23, -169471.48, 0.00, 0.00, 0.00
107, -169387.81, -169340.63, -169431.42, -169434.59, -169454.77, -169444.67, -169524.44, -169473.67, 0.00, 0.00, 0.00
108, -169390.20, -169342.98, -169433.91, -169437.02, -169457.17, -169447.00, -169526.83, -169476.08, -128.00, -48.00, 8416.00
109, -169392.06, -169344.77, -169435.73, -169438.83, -169459.00, -169448.81, -169528.72, -169477.98, 0.00, 0.00, 0.00
110, -169392.67, -169345.44, -169436.31, -169439.38, -169459.56, -169449.47, -169529.30, -169478.52, 0.00, 0.00, 0.00
111, -169391.45, -169344.23, -169435.19, -169438.27, -169458.38, -169448.33, -169528.13, -169477.36, 0.00, 0.00, 0.00
112, -169394.59, -169347.30, -169438.20, -169441.33, -169461.47, -169451.31, -169531.20, -169480.55, 0.00, 0.00, 0.00
113, -169397.98, -169350.69, -169441.44, -169444.70, -169464.91, -169454.72, -169534.63, -169483.95, 0.00, 0.00, 0.00
114, -169399.23, -169352.05, -169442.80, -169445.97, -169466.20, -169456.03, -169535.88, -169485.19, 0.00, 0.00, 0.00
115, -169399.97, -169352.80, -169443.42, -169446.69, -169466.83, -169456.75, -169536.56, -169485.77, 0.00, 0.00, 0.00
116, -169402.14, -169354.84, -169445.59, -169448.84, -169468.89, -169458.83, -169538.67, -169488.00, 0.00, 0.00, 0.00
117, -169403.73, -169356.45, -169447.25, -169450.52, -169470.63, -169460.48, -169540.34, -169489.67, 0.00, 0.00, 0.00
118, -169406.25, -169359.03, -169449.78, -169453.03, -169473.16, -169462.98, -169542.88, -169492.17, 0.00, 0.00, 0.00
119, -169407.69, -169360.44, -169451.14, -169454.33, -169474.55, -169464.34, -169544.28, -169493.58, -160.00, -32.00, 8432.00
120, -169407.39, -169360.14, -169450.95, -169454.02, -169474.30, -169464.17, -169543.92, -169493.30, 0.00, 0.00, 0.00
121, -169408.88, -169361.53, -169452.50, -169455.59, -169475.77, -169465.58, -169545.44, -169494.84, 0.00, 0.00, 0.00
122, -169412.53, -169365.33, -169456.14, -169459.39, -169479.44, -169469.27, -169549.16, -169498.55, 0.00, 0.00, 0.00
123, -169414.39, -169367.20, -169458.06, -169461.20, -169481.30, -169471.14, -169551.03, -169500.42, 0.00, 0.00, 0.00
124, -169413.80, -169366.61, -169457.48, -169460.55, -169480.75, -169470.56, -169550.42, -169499.80, 0.00, 0.00, 0.00
125, -169413.09, -169365.86, -169456.73, -169459.80, -169480.02, -169469.83, -169549.58, -169499.03, 0.00, 0.00, 0.00
126, -169414.61, -169367.41, -169458.27, -169461.41, -169481.56, -169471.38, -169551.20, -169500.53, 0.00, 0.00, 0.00
127, -169416.31, -169369.11, -169459.98, -169463.08, -169483.30, -169473.14, -169552.97, -169502.34, 0.00, 0.00, 0.00
128, -169417.70, -169370.47, -169461.36, -169464.45, -169484.64, -169474.50, -169554.31, -169503.69, 0.00, 0.00, 0.00
129, -169419.94, -169372.78, -169463.67, -169466.81, -169487.08, -169476.86, -169556.61, -169505.98, -160.00, -32.00, 8464.00
130, -169423.36, -169376.28, -169467.09, -169470.16, -169490.45, -169480.22, -169560.03, -169509.41, 0.00, 0.00, 0.00
131, -169424.89, -169377.72, -169468.55, -169471.61, -169491.97, -169481.67, -169561.48, -169510.84, 0.00, 0.00, 0.00
132, -169424.97, -169377.84, -169468.63, -169471.77, -169492.22, -169481.88, -169561.64, -169511.06, 0.00, 0.00, 0.00
133, -169425.13, -169377.98, -169468.80, -169471.91, -169492.27, -169481.98, -169561.78, -169511.13, 0.00, 0.00, 0.00
134, -169426.59, -169379.41, -169470.30, -169473.36, -169493.67, -169483.50, -169563.25, -169512.52, 0.00, 0.00, 0.00
135, -169428.88, -169381.63, -169472.50, -169475.59, -169495.86, -169485.63, -169565.48, -169514.81, 0.00, 0.00, 0.00
136, -169430.55, -169383.44, -169474.20, -169477.42, -169497.66, -169487.48, -169567.30, -169516.61, 0.00, 0.00, 0.00
137, -169431.83, -169384.69, -169475.45, -169478.55, -169498.84, -169488.69, -169568.53, -169517.86, 0.00, 0.00, 0.00
138, -169431.92, -169384.73, -169475.44, -169478.56, -169498.88, -169488.78, -169568.48, -169517.95, 0.00, 0.00, 0.00
139, -169432.31, -169385.14, -169475.86, -169479.06, -169499.36, -169489.16, -169568.98, -169518.34, 0.00, 0.00, 0.00
140, -169432.72, -169385.52, -169476.42, -169479.45, -169499.75, -169489.61, -169569.31, -169518.80, -144.00, -64.00, 8400.00
141, -169436.55, -169389.30, -169480.23, -169483.27, -169503.58, -169493.34, -169573.09, -169522.55, 0.00, 0.00, 0.00
142, -169440.20, -169393.05, -169483.91, -169486.97, -169507.38, -169497.05, -169576.84, -169526.28, 0.00, 0.00, 0.00
143, -169442.22, -169394.97, -169485.92, -169489.05, -169509.30, -169499.06, -169578.81, -169528.25, 0.00, 0.00, 0.00
144, -169442.91, -169395.70, -169486.50, -169489.66, -169509.95, -169499.73, -169579.44, -169528.88, 0.00, 0.00, 0.00
145, -169442.09, -169394.91, -169485.69, -169488.84, -169509.03, -169498.95, -169578.66, -169528.14, 0.00, 0.00, 0.00
146, -169443.73, -169396.53, -169487.38, -169490.55, -169510.70, -169500.63, -169580.33, -169529.86, 0.00, 0.00, 0.00
147, -169444.28, -169396.94, -169487.84, -169491.02, -169511.20, -169501.09, -169580.78, -169530.28, 0.00, 0.00, 0.00
148, -169447.42, -169400.13, -169491.06, -169494.19, -169514.42, -169504.31, -169584.06, -169533.48, 0.00, 0.00, 0.00
149, -169450.67, -169403.38, -169494.39, -169497.47, -169517.59, -169507.52, -169587.33, -169536.70, 0.00, 0.00, 0.00
150, -169451.78, -169404.38, -169495.33, -169498.44, -169518.66, -169508.58, -169588.41, -169537.69, -112.00, -80.00, 8400.00
151, -169453.33, -169406.03, -169497.00, -169500.00, -169520.30, -169510.19, -169589.97, -169539.31, 0.00, 0.00, 0.00
152, -169454.22, -169406.97, -169497.98, -169501.05, -169521.25, -169511.09, -169590.86, -169540.30, 0.00, 0.00, 0.00
153, -169453.73, -169406.41, -169497.41, -169500.58, -169520.70, -169510.58, -169590.34, -169539.72, 0.00, 0.00, 0.00
154, -169455.16, -169407.83, -169498.84, -169501.91, -169522.02, -169511.95, -169591.73, -169541.08, 0.00, 0.00, 0.00
155, -169457.31, -169409.98, -169500.97, -169504.02, -169524.25, -169513.97, -169593.88, -169543.27, 0.00, 0.00, 0.00
156, -169461.58, -169414.27, -169505.28, -169508.36, -169528.59, -169518.34, -169598.13, -169547.56, 0.00, 0.00, 0.00
157, -169461.95, -169414.61, -169505.59, -169508.61, -169528.91, -169518.78, -169598.48, -169547.94, 0.00, 0.00, 0.00
158, -169462.67, -169415.36, -169506.28, -169509.39, -169529.64, -169519.58, -169599.31, -169548.69, 0.00, 0.00, 0.00
159, -169463.86, -169416.50, -169507.39, -169510.53, -169530.78, -169520.61, -169600.42, -169549.73, 0.00, 0.00, 0.00
160, -169464.81, -169417.55, -169508.36, -169511.48, -169531.77, -169521.55, -169601.39, -169550.69, 0.00, 0.00, 0.00
161, -169466.83, -169419.56, -169510.42, -169513.56, -169533.78, -169523.64, -169603.44, -169552.77, -112.00, -64.00, 8368.00
162, -169468.78, -169421.50, -169512.42, -169515.44, -169535.77, -169525.66, -169605.41, -169554.77, 0.00, 0.00, 0.00
163, -169470.34, -169423.00, -169514.00, -169517.05, -169537.34, -169527.16, -169606.94, -169556.33, 0.00, 0.00, 0.00
164, -169470.27, -169422.89, -169513.86, -169517.02, -169537.19, -169527.06, -169606.81, -169556.17, 0.00, 0.00, 0.00
165, -169472.53, -169425.19, -169516.16, -169519.30, -169539.47, -169529.38, -169609.14, -169558.55, 0.00, 0.00, 0.00
166, -169474.08, -169426.80, -169517.77, -169520.86, -169541.08, -169531.03, -169610.66, -169560.06, 0.00, 0.00, 0.00
167, -169475.66, -169428.39, -169519.36, -169522.36, -169542.69, -169532.55, -169612.27, -169561.58, 0.00, 0.00, 0.00
168, -169475.70, -169428.50, -169519.42, -169522.42, -169542.73, -169532.64, -169612.34, -169561.73, 0.00, 0.00, 0.00
169, -169478.94, -169431.69, -169522.59, -169525.64, -169545.95, -169535.88, -169615.58, -169564.95, 0.00, 0.00, 0.00
170, -169480.53, -169433.22, -169524.13, -169527.16, -169547.50, -169537.33, -169617.09, -169566.42, 0.00, 0.00, 0.00
171, -169480.47, -169433.17, -169523.98, -169527.16, -169547.36, -169537.22, -169616.92, -169566.34, 0.00, 0.00, 0.00
172, -169482.13, -169434.84, -169525.69, -169528.83, -169549.13, -169538.84, -169618.67, -169568.13, -160.00, -48.00, 8384.00
173, -169484.69, -169437.42, -169528.31, -169531.41, -169551.75, -169541.53, -169621.33, -169570.77, 0.00, 0.00, 0.00
174, -169486.36, -169439.05, -169529.97, -169533.03, -169553.42, -169543.27, -169622.98, -169572.31, 0.00, 0.00, 0.00
175, -169487.69, -169440.36, -169531.27, -169534.31, -169554.72, -169544.59, -169624.23, -169573.56, 0.00, 0.00, 0.00
176, -169487.84, -169440.50, -169531.41, -169534.48, -169554.81, -169544.70, -169624.50, -169573.72, 0.00, 0.00, 0.00
177, -169487.59, -169440.28, -169531.16, -169534.27, -169554.53, -169544.39, -169624.34, -169573.53, 0.00, 0.00, 0.00
178, -169488.94, -169441.58, -169532.59, -169535.58, -169555.91, -169545.78, -169625.64, -169574.88, 0.00, 0.00, 0.00
179, -169493.81, -169446.42, -169537.48, -169540.38, -169560.75, -169550.61, -169630.48, -169579.70, 0.00, 0.00, 0.00
180, -169495.11, -169447.77, -169538.78, -169541.73, -169562.14, -169551.88, -169631.78, -169581.11, 0.00, 0.00, 0.00
181, -169495.31, -169448.02, -169538.95, -169541.94, -169562.30, -169552.13, -169631.92, -169581.27, 0.00, 0.00, 0.00
182, -169497.66, -169450.31, -169541.33, -169544.25, -169564.69, -169554.45, -169634.22, -169583.64, -128.00, -16.00, 8432.00
183, -169498.80, -169451.47, -169542.53, -169545.39, -169565.78, -169555.61, -169635.39, -169584.83, 0.00, 0.00, 0.00
184, -169499.78, -169452.41, -169543.31, -169546.30, -169566.70, -169556.50, -169636.28, -169585.73, 0.00, 0.00, 0.00
185, -169500.56, -169453.31, -169544.22, -169547.19, -169567.59, -169557.44, -169637.19, -169586.56, 0.00, 0.00, 0.00
186, -169502.69, -169455.45, -169546.38, -169549.42, -169569.73, -169559.61, -169639.47, -169588.77, 0.00, 0.00, 0.00
187, -169504.69, -169457.33, -169548.39, -169551.41, -169571.73, -169561.52, -169641.38, -169590.75, 0.00, 0.00, 0.00
188, -169507.67, -169460.33, -169551.39, -169554.31, -169574.72, -169564.39, -169644.39, -169593.66, 0.00, 0.00, 0.00
189, -169508.27, -169460.97, -169551.97, -169555.00, -169575.33, -169565.09, -169645.02, -169594.28, 0.00, 0.00, 0.00
190, -169508.61, -169461.23, -169552.33, -169555.36, -169575.66, -169565.42, -169645.39, -169594.66, 0.00, 0.00, 0.00
191, -169508.63, -169461.17, -169552.34, -169555.33, -169575.64, -169565.42, -169645.36, -169594.69, 0.00, 0.00, 0.00
192, -169512.70, -169465.31, -169556.45, -169559.45, -169579.75, -169569.58, -169649.48, -169598.73, 0.00, 0.00, 0.00
193, -169515.06, -169467.77, -169558.78, -169561.80, -169582.13, -169572.00, -169651.80, -169601.08, -112.00, -32.00, 8464.00
194, -169516.66, -169469.42, -169560.42, -169563.38, -169583.69, -169573.58, -169653.33, -169602.75, 0.00, 0.00, 0.00
195, -169516.89, -169469.56, -169560.64, -169563.56, -169583.94, -169573.78, -169653.56, -169602.94, 0.00, 0.00, 0.00
196, -169518.70, -169471.23, -169562.30, -169565.27, -169585.63, -169575.38, -169655.25, -169604.58, 0.00, 0.00, 0.00
197, -169520.08, -169472.63, -169563.59, -169566.70, -169586.95, -169576.72, -169656.59, -169605.91, 0.00, 0.00, 0.00
198, -169521.30, -169473.88, -169564.89, -169568.02, -169588.25, -169578.13, -169657.92, -169607.20, 0.00, 0.00, 0.00
199, -169523.36, -169476.03, -169566.98, -169570.08, -169590.45, -169580.25, -169659.92, -169609.25, 0.00, 0.00, 0.00
200, -169524.45, -169477.20, -169568.19, -169571.19, -169591.53, -169581.34, -169661.02, -169610.48, 0.00, 0.00, 0.00
201, -169524.67, -169477.45, -169568.42, -169571.38, -169591.78, -169581.61, -169661.33, -169610.75, 0.00, 0.00, 0.00
202, -169526.83, -169479.53, -169570.56, -169573.50, -169593.86, -169583.73, -169663.48, -169612.91, 0.00, 0.00, 0.00
203, -169528.63, -169481.22, -169572.27, -169575.33, -169595.59, -169585.56, -169665.27, -169614.63, -80.00, -16.00, 8416.00
204, -169529.58, -169482.14, -169573.25, -169576.22, -169596.56, -169586.45, -169666.19, -169615.58, 0.00, 0.00, 0.00
205, -169532.08, -169484.75, -169575.81, -169578.86, -169599.13, -169589.03, -169668.67, -169618.23, 0.00, 0.00, 0.00
206, -169532.23, -169484.94, -169575.91, -169578.88, -169599.23, -169589.09, -169668.83, -169618.27, 0.00, 0.00, 0.00
207, -169533.59, -169486.20, -169577.16, -169580.13, -169600.56, -169590.41, -169670.16, -169619.42, 0.00, 0.00, 0.00
208, -169534.27, -169486.83, -169577.88, -169580.88, -169601.23, -169591.02, -169670.80, -169620.09, 0.00, 0.00, 0.00
209, -169534.33, -169486.95, -169577.92, -169580.94, -169601.36, -169591.13, -169670.88, -169620.25, 0.00, 0.00, 0.00
210, -169535.88, -169488.52, -169579.44, -169582.56, -169602.89, -169592.78, -169672.44, -169621.81, 0.00, 0.00, 0.00
211, -169536.77, -169489.55, -169580.41, -169583.53, -169603.84, -169593.75, -169673.41, -169622.73, 0.00, 0.00, 0.00
212, -169537.17, -169489.86, -169580.80, -169583.86, -169604.19, -169594.06, -169673.81, -169623.11, 0.00, 0.00, 0.00
213, -169540.23, -169492.88, -169583.81, -169586.95, -169607.31, -169597.05, -169676.91, -169626.13, 0.00, 0.00, 0.00
214, -169543.05, -169495.75, -169586.70, -169589.75, -169610.13, -169599.94, -169679.73, -169629.11, -80.00, -16.00, 8496.00
215, -169544.19, -169496.84, -169587.86, -169590.91, -169611.25, -169601.09, -169680.84, -169630.31, 0.00, 0.00, 0.00
216, -169546.09, -169498.84, -169589.70, -169592.77, -169613.13, -169603.02, -169682.75, -169632.14, 0.00, 0.00, 0.00
217, -169547.61, -169500.25, -169591.16, -169594.17, -169614.64, -169604.41, -169684.25, -169633.58, 0.00, 0.00, 0.00
218, -169548.34, -169500.98, -169591.94, -169595.00, -169615.33, -169605.14, -169684.98, -169634.41, 0.00, 0.00, 0.00
219, -169550.36, -169503.02, -169593.98, -169597.03, -169617.34, -169607.36, -169686.92, -169636.39, 0.00, 0.00, 0.00
220, -169552.86, -169505.52, -169596.45, -169599.59, -169619.92, -169609.91, -169689.39, -169638.89, 0.00, 0.00, 0.00
221, -169555.20, -169507.89, -169598.81, -169601.83, -169622.17, -169612.09, -169691.69, -169641.20, 0.00, 0.00, 0.00
222, -169554.11, -169506.81, -169597.81, -169600.72, -169621.14, -169610.97, -169690.66, -169640.17, 0.00, 0.00, 0.00
223, -169554.05, -169506.70, -169597.67, -169600.66, -169620.98, -169610.84, -169690.55, -169640.03, 0.00, 0.00, 0.00
224, -169554.38, -169506.95, -169597.98, -169600.97, -169621.28, -169611.16, -169690.91, -169640.33, -128.00, -64.00, 8384.00
225, -169555.70, -169508.31, -169599.36, -169602.34, -169622.59, -169612.56, -169692.22, -169641.67, 0.00, 0.00, 0.00
226, -169557.22, -169509.86, -169600.88, -169603.94, -169624.16, -169614.17, -169693.77, -169643.19, 0.00, 0.00, 0.00
227, -169560.13, -169512.83, -169603.73, -169606.84, -169627.09, -169617.03, -169696.67, -169646.14, 0.00, 0.00, 0.00
228, -169562.00, -169514.81, -169605.61, -169608.66, -169628.92, -169618.94, -169698.63, -169648.03, 0.00, 0.00, 0.00
229, -169562.31, -169515.05, -169605.98, -169609.03, -169629.34, -169619.38, -169698.97, -169648.42, 0.00, 0.00, 0.00
230, -169564.70, -169517.44, -169608.42, -169611.48, -169631.83, -169621.80, -169701.41, -169650.77, 0.00, 0.00, 0.00
231, -169566.14, -169518.86, -169609.77, -169612.88, -169633.22, -169623.11, -169702.75, -169652.17, 0.00, 0.00, 0.00
232, -169567.72, -169520.27, -169611.22, -169614.34, -169634.63, -169624.50, -169704.20, -169653.69, 0.00, 0.00, 0.00
233, -169568.58, -169521.28, -169612.27, -169615.36, -169635.52, -169625.58, -169705.19, -169654.67, 0.00, 0.00, 0.00
234, -169571.02, -169523.69, -169614.63, -169617.69, -169637.89, -169627.92, -169707.63, -169656.94, 0.00, 0.00, 0.00
235, -169571.41, -169523.98, -169614.95, -169618.08, -169638.27, -169628.28, -169708.05, -169657.31, -112.00, -16.00, 8384.00
236, -169574.91, -169527.42, -169618.38, -169621.55, -169641.84, -169631.70, -169711.38, -169660.78, 0.00, 0.00, 0.00
237, -169575.91, -169528.36, -169619.34, -169622.52, -169642.73, -169632.72, -169712.36, -169661.72, 0.00, 0.00, 0.00
238, -169576.17, -169528.72, -169619.81, -169622.84, -169643.08, -169633.13, -169712.81, -169662.08, 0.00, 0.00, 0.00
239, -169578.44, -169530.98, -169622.05, -169624.97, -169645.31, -169635.34, -169714.98, -169664.38, 0.00, 0.00, 0.00
240, -169579.11, -169531.52, -169622.63, -169625.58, -169645.95, -169635.98, -169715.61, -169664.95, 0.00, 0.00, 0.00
241, -169579.53, -169532.00, -169623.09, -169626.09, -169646.41, -169636.41, -169716.05, -169665.42, 0.00, 0.00, 0.00
242, -169582.34, -169534.94, -169625.89, -169628.97, -169649.25, -169639.25, -169718.89, -169668.31, 0.00, 0.00, 0.00
243, -169584.67, -169537.22, -169628.20, -169631.27, -169651.59, -169641.64, -169721.28, -169670.61, 0.00, 0.00, 0.00
244, -169585.58, -169538.17, -169629.19, -169632.20, -169652.47, -169642.56, -169722.20, -169671.48, 0.00, 0.00, 0.00
245, -169586.88, -169539.50, -169630.52, -169633.47, -169653.73, -169643.86, -169723.42, -169672.78, -144.00, -32.00, 8336.00
246, -169588.16, -169540.69, -169631.77, -169634.80, -169655.03, -169645.08, -169724.66, -169674.08, 0.00, 0.00, 0.00
247, -169588.77, -169541.31, -169632.36, -169635.45, -169655.66, -169645.75, -169725.33, -169674.75, 0.00, 0.00, 0.00
248, -169590.70, -169543.30, -169634.42, -169637.39, -169657.64, -169647.61, -169727.23, -169676.72, 0.00, 0.00, 0.00
249, -169593.13, -169545.73, -169636.80, -169639.83, -169660.03, -169650.03, -169729.63, -169679.11, 0.00, 0.00, 0.00
250, -169595.52, -169548.06, -169639.16, -169642.25, -169662.52, -169652.47, -169732.02, -169681.52, 0.00, 0.00, 0.00
251, -169597.25, -169549.89, -169640.92, -169643.97, -169664.27, -169654.14, -169733.83, -169683.27, 0.00, 0.00, 0.00
252, -169597.47, -169550.06, -169641.11, -169644.17, -169664.39, -169654.30, -169734.02, -169683.42, 0.00, 0.00, 0.00
253, -169599.23, -169551.86, -169642.78, -169645.89, -169666.23, -169656.16, -169735.77, -169685.28, 0.00, 0.00, 0.00
254, -169602.06, -169554.61, -169645.52, -169648.69, -169668.94, -169658.88, -169738.50, -169687.94, 0.00, 0.00, 0.00
255, -169603.41, -169555.91, -169646.88, -169650.05, -169670.23, -169660.22, -169739.83, -169689.23, 0.00, 0.00, 0.00
0, -169606.42, -169558.98, -169650.00, -169653.09, -169673.41, -169663.34, -169742.97, -169692.41, -112.00, -32.00, 8384.00
1, -169606.11, -169558.66, -169649.72, -169652.84, -169673.03, -169663.02, -169742.66, -169692.06, 0.00, 0.00, 0.00
2, -169606.70, -169559.25, -169650.27, -169653.42, -169673.61, -169663.64, -169743.28, -169692.72, 0.00, 0.00, 0.00
3, -169608.52, -169561.06, -169652.14, -169655.23, -169675.42, -169665.47, -169745.22, -169694.53, 0.00, 0.00, 0.00
4, -169608.66, -169561.17, -169652.28, -169655.30, -169675.53, -169665.63, -169745.28, -169694.69, 0.00, 0.00, 0.00
5, -169611.83, -169564.47, -169655.48, -169658.52, -169678.91, -169668.83, -169748.48, -169697.92, 0.00, 0.00, 0.00
6, -169614.73, -169567.41, -169658.41, -169661.42, -169681.73, -169671.75, -169751.45, -169700.83, 0.00, 0.00, 0.00
7, -169615.36, -169568.03, -169659.03, -169661.98, -169682.33, -169672.36, -169752.06, -169701.34, 0.00, 0.00, 0.00
8, -169616.31, -169569.00, -169660.02, -169662.97, -169683.34, -169673.41, -169752.98, -169702.34, 0.00, 0.00, 0.00
9, -169617.89, -169570.59, -169661.56, -169664.55, -169684.88, -169674.92, -169754.59, -169703.95, 0.00, 0.00, 0.00
10, -169618.31, -169571.02, -169662.00, -169664.98, -169685.25, -169675.27, -169754.98, -169704.41, 0.00, 0.00, 0.00
11, -169618.70, -169571.30, -169662.34, -169665.36, -169685.59, -169675.53, -169755.30, -169704.67, -80.00, -32.00, 8288.00
12, -169619.02, -169571.55, -169662.61, -169665.63, -169685.88, -169675.81, -169755.50, -169704.92, 0.00, 0.00, 0.00
13, -169620.55, -169573.11, -169664.17, -169667.19, -169687.42, -169677.47, -169757.06, -169706.53, 0.00, 0.00, 0.00
14, -169623.30, -169575.89, -169666.91, -169669.97, -169690.13, -169680.22, -169759.84, -169709.23, 0.00, 0.00, 0.00
15, -169625.17, -169577.77, -169668.84, -169671.84, -169692.00, -169682.08, -169761.73, -169711.09, 0.00, 0.00, 0.00
16, -169625.27, -169577.89, -169668.95, -169671.95, -169692.19, -169682.23, -169761.84, -169711.16, 0.00, 0.00, 0.00
17, -169626.98, -169579.59, -169670.61, -169673.67, -169693.97, -169683.94, -169763.55, -169712.91, 0.00, 0.00, 0.00
18, -169630.28, -169582.91, -169673.92, -169676.98, -169697.25, -169687.20, -169766.83, -169716.28, 0.00, 0.00, 0.00
19, -169631.00, -169583.63, -169674.56, -169677.66, -169697.98, -169687.91, -169767.55, -169716.97, 0.00, 0.00, 0.00
20, -169632.81, -169585.42, -169676.38, -169679.48, -169699.72, -169689.77, -169769.45, -169718.78, 0.00, 0.00, 0.00
21, -169635.56, -169588.20, -169679.19, -169682.30, -169702.47, -169692.52, -169772.20, -169721.47, -96.00, -64.00, 8368.00
22, -169637.59, -169590.28, -169681.27, -169684.36, -169704.55, -169694.55, -169774.25, -169723.55, 0.00, 0.00, 0.00
23, -169639.72, -169592.31, -169683.34, -169686.34, -169706.55, -169696.61, -169776.36, -169725.66, 0.00, 0.00, 0.00
24, -169640.48, -169593.05, -169684.05, -169687.06, -169707.22, -169697.33, -169777.08, -169726.31, 0.00, 0.00, 0.00
25, -169641.17, -169593.75, -169684.77, -169687.78, -169708.00, -169698.13, -169777.81, -169727.00, 0.00, 0.00, 0.00
26, -169642.00, -169594.61, -169685.70, -169688.77, -169708.91, -169699.06, -169778.69, -169727.97, 0.00, 0.00, 0.00
27, -169644.22, -169596.84, -169687.89, -169690.95, -169711.22, -169701.28, -169780.92, -169730.30, 0.00, 0.00, 0.00
28, -169646.97, -169599.59, -169690.61, -169693.61, -169713.97, -169704.03, -169783.63, -169732.97, 0.00, 0.00, 0.00
29, -169648.11, -169600.73, -169691.73, -169694.80, -169715.06, -169705.17, -169784.83, -169734.14, 0.00, 0.00, 0.00
30, -169647.95, -169600.56, -169691.63, -169694.69, -169714.80, -169704.98, -169784.63, -169733.94, 0.00, 0.00, 0.00
31, -169649.09, -169601.77, -169692.73, -169695.75, -169716.00, -169706.17, -169785.75, -169734.98, 0.00, 0.00, 0.00
32, -169650.89, -169603.58, -169694.50, -169697.50, -169717.84, -169707.92, -169787.56, -169736.92, -112.00, -48.00, 8368.00
33, -169651.72, -169604.36, -169695.31, -169698.27, -169718.64, -169708.70, -169788.34, -169737.75, 0.00, 0.00, 0.00
34, -169653.25, -169605.88, -169696.88, -169699.80, -169720.19, -169710.20, -169789.91, -169739.25, 0.00, 0.00, 0.00
35, -169656.19, -169608.78, -169699.83, -169702.75, -169723.09, -169713.19, -169792.83, -169742.06, 0.00, 0.00, 0.00
36, -169657.89, -169610.47, -169701.50, -169704.41, -169724.77, -169714.88, -169794.48, -169743.75, 0.00, 0.00, 0.00
37, -169657.88, -169610.53, -169701.45, -169704.47, -169724.77, -169714.91, -169794.50, -169743.77, 0.00, 0.00, 0.00
38, -169657.27, -169609.88, -169700.81, -169703.83, -169724.19, -169714.31, -169793.84, -169743.25, 0.00, 0.00, 0.00
39, -169658.72, -169611.22, -169702.28, -169705.19, -169725.55, -169715.67, -169795.25, -169744.59, 0.00, 0.00, 0.00
40, -169662.61, -169615.22, -169706.19, -169709.19, -169729.55, -169719.63, -169799.27, -169748.58, 0.00, 0.00, 0.00
41, -169664.53, -169617.13, -169708.11, -169711.17, -169731.45, -169721.58, -169801.19, -169750.52, 0.00, 0.00, 0.00
42, -169667.06, -169619.58, -169710.53, -169713.69, -169733.91, -169724.05, -169803.61, -169753.05, -96.00, -64.00, 8368.00
43, -169667.75, -169620.30, -169711.31, -169714.47, -169734.67, -169724.77, -169804.30, -169753.80, 0.00, 0.00, 0.00
44, -169668.67, -169621.33, -169712.25, -169715.41, -169735.59, -169725.66, -169805.22, -169754.70, 0.00, 0.00, 0.00
45, -169669.56, -169622.22, -169713.17, -169716.25, -169736.48, -169726.58, -169806.16, -169755.55, 0.00, 0.00, 0.00
46, -169671.58, -169624.23, -169715.16, -169718.28, -169738.45, -169728.64, -169808.19, -169757.56, 0.00, 0.00, 0.00
47, -169673.92, -169626.63, -169717.45, -169720.61, -169740.75, -169730.89, -169810.44, -169759.91, 0.00, 0.00, 0.00
48, -169672.91, -169625.61, -169716.56, -169719.63, -169739.88, -169729.98, -169809.45, -169758.92, 0.00, 0.00, 0.00
49, -169675.91, -169628.59, -169719.58, -169722.53, -169742.92, -169732.92, -169812.52, -169761.84, 0.00, 0.00, 0.00
50, -169678.55, -169631.16, -169722.13, -169725.17, -169745.52, -169735.45, -169815.14, -169764.41, 0.00, 0.00, 0.00
51, -169677.98, -169630.59, -169721.53, -169724.66, -169744.81, -169734.89, -169814.58, -169763.89, 0.00, 0.00, 0.00
52, -169679.44, -169632.02, -169722.98, -169726.05, -169746.16, -169736.38, -169816.08, -169765.41, 0.00, 0.00, 0.00
53, -169678.92, -169631.58, -169722.53, -169725.53, -169745.84, -169735.94, -169815.61, -169764.94, -112.00, -16.00, 8368.00
54, -169680.88, -169633.63, -169724.55, -169727.52, -169747.92, -169737.95, -169817.58, -169766.95, 0.00, 0.00, 0.00
55, -169683.86, -169636.53, -169727.50, -169730.45, -169750.83, -169740.84, -169820.48, -169769.78, 0.00, 0.00, 0.00
56, -169684.36, -169637.00, -169727.98, -169731.00, -169751.23, -169741.25, -169820.97, -169770.28, 0.00, 0.00, 0.00
57, -169685.31, -169637.98, -169728.91, -169731.91, -169752.31, -169742.27, -169821.94, -169771.28, 0.00, 0.00, 0.00
58, -169686.41, -169639.03, -169729.95, -169732.92, -169753.27, -169743.33, -169822.94, -169772.36, 0.00, 0.00, 0.00
59, -169691.02, -169643.63, -169734.53, -169737.48, -169757.83, -169747.86, -169827.47, -169776.89, 0.00, 0.00, 0.00
60, -169691.58, -169644.30, -169735.16, -169738.16, -169758.52, -169748.55, -169828.14, -169777.59, 0.00, 0.00, 0.00
61, -169694.06, -169646.66, -169737.59, -169740.58, -169760.95, -169751.08, -169830.58, -169780.02, 0.00, 0.00, 0.00
62, -169694.97, -169647.52, -169738.38, -169741.52, -169761.73, -169751.92, -169831.47, -169780.84, 0.00, 0.00, 0.00
63, -169694.34, -169646.89, -169737.83, -169740.91, -169761.05, -169751.25, -169830.83, -169780.16, -176.00, -48.00, 8368.00
64, -169693.34, -169645.98, -169736.84, -169739.97, -169760.22, -169750.30, -169829.83, -169779.23, 0.00, 0.00, 0.00
65, -169698.48, -169651.09, -169742.03, -169745.09, -169765.34, -169755.50, -169835.02, -169784.45, 0.00, 0.00, 0.00
66, -169700.70, -169653.41, -169744.27, -169747.23, -169767.50, -169757.67, -169837.25, -169786.64, 0.00, 0.00, 0.00
67, -169701.20, -169653.80, -169744.81, -169747.80, -169768.09, -169758.14, -169837.69, -169787.16, 0.00, 0.00, 0.00
68, -169700.52, -169653.06, -169744.03, -169747.03, -169767.33, -169757.42, -169837.02, -169786.44, 0.00, 0.00, 0.00
69, -169701.72, -169654.27, -169745.28, -169748.31, -169768.64, -169758.72, -169838.30, -169787.63, 0.00, 0.00, 0.00
70, -169704.14, -169656.70, -169747.80, -169750.73, -169771.13, -169761.19, -169840.66, -169790.08, 0.00, 0.00, 0.00
71, -169705.14, -169657.69, -169748.70, -169751.80, -169772.09, -169762.16, -169841.58, -169791.09, 0.00, 0.00, 0.00
72, -169705.50, -169658.03, -169749.02, -169752.13, -169772.38, -169762.52, -169841.98, -169791.48, 0.00, 0.00, 0.00
73, -169709.28, -169661.83, -169752.84, -169755.86, -169776.17, -169766.36, -169845.83, -169795.22, 0.00, 0.00, 0.00
74, -169711.81, -169664.36, -169755.22, -169758.36, -169778.70, -169768.84, -169848.42, -169797.69, -176.00, -80.00, 8432.00
75, -169712.47, -169665.09, -169756.05, -169759.17, -169779.47, -169769.56, -169849.16, -169798.47, 0.00, 0.00, 0.00
76, -169712.00, -169664.64, -169755.72, -169758.70, -169779.06, -169769.11, -169848.75, -169797.97, 0.00, 0.00, 0.00
77, -169716.50, -169669.05, -169760.08, -169763.11, -169783.44, -169773.58, -169853.14, -169802.39, 0.00, 0.00, 0.00
78, -169717.55, -169670.09, -169761.20, -169764.16, -169784.58, -169774.66, -169854.23, -169803.53, 0.00, 0.00, 0.00
79, -169718.02, -169670.67, -169761.73, -169764.69, -169785.09, -169775.11, -169854.77, -169804.08, 0.00, 0.00, 0.00
80, -169718.06, -169670.72, -169761.72, -169764.75, -169785.09, -169775.11, -169854.81, -169804.13, 0.00, 0.00, 0.00
81, -169718.17, -169670.80, -169761.81, -169764.80, -169785.16, -169775.23, -169854.86, -169804.23, 0.00, 0.00, 0.00
82, -169722.64, -169675.23, -169766.20, -169769.27, -169789.64, -169779.75, -169859.22, -169808.67, 0.00, 0.00, 0.00
83, -169726.48, -169679.06, -169770.05, -169773.14, -169793.50, -169783.53, -169863.02, -169812.55, 0.00, 0.00, 0.00
84, -169726.47, -169679.06, -169769.98, -169773.14, -169793.41, -169783.48, -169863.02, -169812.48, 0.00, 0.00, 0.00
85, -169726.95, -169679.53, -169770.52, -169773.55, -169793.88, -169783.98, -169863.47, -169812.88, -192.00, -48.00, 8384.00
86, -169729.48, -169682.08, -169773.09, -169776.09, -169796.47, -169786.50, -169865.98, -169815.41, 0.00, 0.00, 0.00
87, -169731.28, -169683.91, -169774.91, -169777.97, -169798.34, -169788.36, -169867.89, -169817.27, 0.00, 0.00, 0.00
88, -169732.38, -169685.03, -169775.95, -169779.16, -169799.48, -169789.48, -169869.03, -169818.48, 0.00, 0.00, 0.00
89, -169735.09, -169687.78, -169778.80, -169781.81, -169802.20, -169792.20, -169871.78, -169821.17, 0.00, 0.00, 0.00
90, -169737.70, -169690.39, -169781.36, -169784.36, -169804.75, -169794.84, -169874.39, -169823.72, 0.00, 0.00, 0.00
91, -169740.27, -169692.83, -169783.83, -169786.89, -169807.27, -169797.39, -169876.88, -169826.31, 0.00, 0.00, 0.00
92, -169742.22, -169694.86, -169785.81, -169788.89, -169809.27, -169799.36, -169878.89, -169828.30, 0.00, 0.00, 0.00
93, -169742.69, -169695.25, -169786.27, -169789.36, -169809.64, -169799.88, -169879.38, -169828.69, 0.00, 0.00, 0.00
94, -169740.75, -169693.30, -169784.30, -169787.42, -169807.81, -169797.86, -169877.44, -169826.73, 0.00, 0.00, 0.00
95, -169742.52, -169695.09, -169786.08, -169789.17, -169809.53, -169799.58, -169879.13, -169828.48, -128.00, 0.00, 8352.00
96, -169745.95, -169698.50, -169789.44, -169792.66, -169812.88, -169803.06, -169882.50, -169831.88, 0.00, 0.00, 0.00
97, -169747.48, -169699.98, -169790.95, -169794.06, -169814.38, -169804.50, -169884.06, -169833.31, 0.00, 0.00, 0.00
98, -169745.95, -169698.58, -169789.59, -169792.67, -169812.98, -169802.98, -169882.58, -169831.83, 0.00, 0.00, 0.00
99, -169748.39, -169700.98, -169792.05, -169795.11, -169815.42, -169805.50, -169885.02, -169834.38, 0.00, 0.00, 0.00
100, -169751.69, -169704.20, -169795.28, -169798.34, -169818.58, -169808.75, -169888.25, -169837.63, 0.00, 0.00, 0.00
101, -169751.53, -169704.11, -169795.13, -169798.19, -169818.38, -169808.52, -169888.08, -169837.38, 0.00, 0.00, 0.00
102, -169752.80, -169705.41, -169796.34, -169799.52, -169819.73, -169809.92, -169889.38, -169838.70, 0.00, 0.00, 0.00
103, -169755.55, -169708.09, -169799.17, -169802.22, -169822.56, -169812.67, -169892.11, -169841.52, 0.00, 0.00, 0.00
104, -169756.00, -169708.59, -169799.67, -169802.64, -169823.00, -169813.08, -169892.61, -169841.89, 0.00, 0.00, 0.00
105, -169756.38, -169709.06, -169800.00, -169803.05, -169823.34, -169813.44, -169893.02, -169842.27, 0.00, 0.00, 0.00
106, -169757.77, -169710.44, -169801.44, -169804.47, -169824.72, -169814.94, -169894.38, -169843.69, -160.00, 0.00, 8368.00
107, -169761.03, -169713.77, -169804.67, -169807.77, -169828.08, -169818.25, -169897.73, -169846.97, 0.00, 0.00, 0.00
108, -169763.86, -169716.59, -169807.52, -169810.58, -169830.88, -169820.97, -169900.45, -169849.78, 0.00, 0.00, 0.00
109, -169765.94, -169718.59, -169809.59, -169812.72, -169832.89, -169823.05, -169902.44, -169851.86, 0.00, 0.00, 0.00
110, -169764.78, -169717.48, -169808.47, -169811.61, -169831.81, -169822.05, -169901.39, -169850.88, 0.00, 0.00, 0.00
111, -169765.72, -169718.42, -169809.42, -169812.44, -169832.75, -169823.00, -169902.36, -169851.81, 0.00, 0.00, 0.00
112, -169768.22, -169720.91, -169811.88, -169814.94, -169835.23, -169825.47, -169904.81, -169854.20, 0.00, 0.00, 0.00
113, -169768.78, -169721.30, -169812.34, -169815.39, -169835.66, -169825.91, -169905.28, -169854.56, 0.00, 0.00, 0.00
114, -169770.30, -169722.84, -169813.84, -169816.86, -169837.13, -169827.30, -169906.73, -169856.06, 0.00, 0.00, 0.00
115, -169771.66, -169724.25, -169815.25, -169818.36, -169838.52, -169828.70, -169908.20, -169857.56, 0.00, 0.00, 0.00
116, -169772.69, -169725.31, -169816.28, -169819.36, -169839.59, -169829.80, -169909.23, -169858.55, -112.00, -16.00, 8400.00
117, -169772.78, -169725.38, -169816.39, -169819.45, -169839.75, -169829.89, -169909.28, -169858.64, 0.00, 0.00, 0.00
118, -169773.83, -169726.48, -169817.42, -169820.48, -169840.81, -169831.03, -169910.41, -169859.84, 0.00, 0.00, 0.00
119, -169776.33, -169728.95, -169819.98, -169823.08, -169843.33, -169833.58, -169912.84, -169862.33, 0.00, 0.00, 0.00
120, -169777.05, -169729.67, -169820.75, -169823.75, -169844.00, -169834.25, -169913.53, -169863.02, 0.00, 0.00, 0.00
121, -169779.86, -169732.59, -169823.52, -169826.64, -169846.86, -169837.09, -169916.50, -169865.94, 0.00, 0.00, 0.00
122, -169783.05, -169735.67, -169826.72, -169829.70, -169850.05, -169840.22, -169919.67, -169869.20, 0.00, 0.00, 0.00
123, -169786.14, -169738.88, -169829.80, -169832.80, -169853.16, -169843.28, -169922.77, -169872.22, 0.00, 0.00, 0.00
124, -169787.20, -169739.75, -169830.69, -169833.78, -169854.03, -169844.33, -169923.72, -169873.08, 0.00, 0.00, 0.00
125, -169786.34, -169738.89, -169829.89, -169833.05, -169853.22, -169843.50, -169922.88, -169872.27, 0.00, 0.00, 0.00
126, -169788.66, -169741.22, -169832.27, -169835.30, -169855.58, -169845.80, -169925.20, -169874.61, 0.00, 0.00, 0.00
127, -169790.02, -169742.58, -169833.63, -169836.63, -169856.94, -169847.17, -169926.61, -169875.95, -112.00, 16.00, 8352.00
128, -169793.17, -169745.73, -169836.59, -169839.75, -169860.02, -169850.25, -169929.63, -169879.08, 0.00, 0.00, 0.00
129, -169794.34, -169746.94, -169837.88, -169840.94, -169861.22, -169851.39, -169930.73, -169880.16, 0.00, 0.00, 0.00
130, -169795.28, -169747.84, -169838.83, -169841.78, -169862.20, -169852.38, -169931.72, -169881.09, 0.00, 0.00, 0.00
131, -169796.94, -169749.47, -169840.48, -169843.39, -169863.81, -169854.13, -169933.36, -169882.78, 0.00, 0.00, 0.00
132, -169798.03, -169750.58, -169841.53, -169844.55, -169864.84, -169855.19, -169934.45, -169883.84, 0.00, 0.00, 0.00
133, -169800.03, -169752.69, -169843.56, -169846.59, -169866.97, -169857.30, -169936.53, -169885.91, 0.00, 0.00, 0.00
134, -169802.08, -169754.66, -169845.47, -169848.53, -169868.95, -169859.30, -169938.50, -169887.98, 0.00, 0.00, 0.00
135, -169802.86, -169755.44, -169846.30, -169849.38, -169869.66, -169860.00, -169939.33, -169888.78, 0.00, 0.00, 0.00
136, -169803.17, -169755.77, -169846.67, -169849.73, -169870.03, -169860.33, -169939.70, -169889.14, 0.00, 0.00, 0.00
137, -169805.14, -169757.77, -169848.53, -169851.69, -169872.00, -169862.34, -169941.63, -169891.14, -96.00, -32.00, 8384.00
138, -169808.25, -169760.89, -169851.81, -169854.91, -169875.16, -169865.56, -169944.83, -169894.27, 0.00, 0.00, 0.00
139, -169810.53, -169763.11, -169854.03, -169857.14, -169877.44, -169867.81, -169947.11, -169896.52, 0.00, 0.00, 0.00
140, -169810.06, -169762.61, -169853.56, -169856.52, -169876.92, -169867.19, -169946.55, -169896.05, 0.00, 0.00, 0.00
141, -169812.03, -169764.58, -169855.55, -169858.59, -169878.89, -169869.14, -169948.52, -169898.00, 0.00, 0.00, 0.00
142, -169812.36, -169764.94, -169855.86, -169858.97, -169879.27, -169869.47, -169948.88, -169898.28, 0.00, 0.00, 0.00
143, -169814.58, -169767.14, -169858.05, -169861.09, -169881.33, -169871.67, -169951.11, -169900.45, 0.00, 0.00, 0.00
144, -169817.17, -169769.73, -169860.64, -169863.66, -169883.91, -169874.28, -169953.63, -169902.95, 0.00, 0.00, 0.00
145, -169820.09, -169772.72, -169863.69, -169866.70, -169887.02, -169877.28, -169956.59, -169906.00, 0.00, 0.00, 0.00
146, -169821.13, -169773.81, -169864.72, -169867.73, -169888.05, -169878.42, -169957.77, -169907.03, 0.00, 0.00, 0.00
147, -169821.59, -169774.22, -169865.20, -169868.16, -169888.47, -169878.81, -169958.23, -169907.50, 0.00, 0.00, 0.00
148, -169822.16, -169774.77, -169865.78, -169868.77, -169888.98, -169879.31, -169958.66, -169908.09, -112.00, -32.00, 8368.00
149, -169824.30, -169776.95, -169867.94, -169870.97, -169891.17, -169881.56, -169960.89, -169910.33, 0.00, 0.00, 0.00
150, -169825.69, -169778.34, -169869.30, -169872.31, -169892.61, -169882.80, -169962.19, -169911.77, 0.00, 0.00, 0.00
151, -169828.30, -169780.97, -169872.00, -169874.86, -169895.25, -169885.44, -169964.80, -169914.30, 0.00, 0.00, 0.00
152, -169827.63, -169780.31, -169871.31, -169874.17, -169894.63, -169884.83, -169964.20, -169913.58, 0.00, 0.00, 0.00
153, -169827.86, -169780.41, -169871.48, -169874.33, -169894.75, -169885.02, -169964.47, -169913.75, 0.00, 0.00, 0.00
154, -169831.67, -169784.16, -169875.22, -169878.19, -169898.44, -169888.77, -169968.17, -169917.48, 0.00, 0.00, 0.00
155, -169830.98, -169783.55, -169874.58, -169877.41, -169897.84, -169888.14, -169967.48, -169916.88, 0.00, 0.00, 0.00
156, -169831.72, -169784.38, -169875.33, -169878.19, -169898.59, -169888.83, -169968.31, -169917.67, 0.00, 0.00, 0.00
157, -169832.91, -169785.50, -169876.50, -169879.42, -169899.78, -169889.95, -169969.50, -169918.83, 0.00, 0.00, 0.00
158, -169835.61, -169788.14, -169879.08, -169882.06, -169902.42, -169892.72, -169972.09, -169921.48, 0.00, 0.00, 0.00
159, -169838.30, -169790.91, -169881.86, -169884.92, -169905.14, -169895.52, -169974.86, -169924.23, -160.00, 0.00, 8368.00
160, -169839.19, -169791.72, -169882.69, -169885.81, -169906.02, -169896.36, -169975.75, -169925.08, 0.00, 0.00, 0.00
161, -169838.66, -169791.16, -169882.22, -169885.19, -169905.55, -169895.83, -169975.16, -169924.58, 0.00, 0.00, 0.00
162, -169842.45, -169794.94, -169886.03, -169888.94, -169909.33, -169899.53, -169978.91, -169928.38, 0.00, 0.00, 0.00
163, -169842.92, -169795.41, -169886.50, -169889.45, -169909.80, -169900.05, -169979.44, -169928.89, 0.00, 0.00, 0.00
164, -169844.13, -169796.56, -169887.67, -169890.80, -169911.05, -169901.22, -169980.70, -169930.03, 0.00, 0.00, 0.00
165, -169846.88, -169799.27, -169890.28, -169893.39, -169913.66, -169903.88, -169983.30, -169932.73, 0.00, 0.00, 0.00
166, -169846.83, -169799.36, -169890.38, -169893.39, -169913.73, -169904.00, -169983.31, -169932.84, 0.00, 0.00, 0.00
167, -169847.95, -169800.44, -169891.42, -169894.53, -169914.80, -169905.03, -169984.42, -169933.88, 0.00, 0.00, 0.00
168, -169849.36, -169801.86, -169892.88, -169895.92, -169916.25, -169906.53, -169985.88, -169935.20, 0.00, 0.00, 0.00
169, -169850.03, -169802.55, -169893.61, -169896.61, -169916.91, -169907.27, -169986.67, -169935.91, -176.00, -32.00, 8368.00
170, -169853.84, -169806.39, -169897.44, -169900.55, -169920.80, -169911.11, -169990.55, -169939.75, 0.00, 0.00, 0.00
171, -169855.23, -169807.88, -169898.86, -169902.00, -169922.20, -169912.56, -169991.92, -169941.22, 0.00, 0.00, 0.00
172, -169853.97, -169806.58, -169897.61, -169900.72, -169920.95, -169911.36, -169990.59, -169939.95, 0.00, 0.00, 0.00
173, -169856.02, -169808.67, -169899.73, -169902.78, -169923.03, -169913.47, -169992.66, -169942.13, 0.00, 0.00, 0.00
174, -169859.94, -169812.52, -169903.63, -169906.59, -169926.98, -169917.31, -169996.45, -169945.97, 0.00, 0.00, 0.00
175, -169862.81, -169815.42, -169906.42, -169909.48, -169929.84, -169920.17, -169999.41, -169948.80, 0.00, 0.00, 0.00
176, -169862.02, -169814.56, -169905.55, -169908.61, -169928.94, -169919.23, -169998.67, -169947.84, 0.00, 0.00, 0.00
177, -169860.83, -169813.28, -169904.30, -169907.30, -169927.61, -169918.00, -169997.39, -169946.67, 0.00, 0.00, 0.00
178, -169863.27, -169815.70, -169906.80, -169909.80, -169930.11, -169920.55, -169999.78, -169949.22, 0.00, 0.00, 0.00
179, -169866.39, -169818.92, -169909.89, -169913.00, -169933.22, -169923.70, -170002.92, -169952.28, 0.00, 0.00, 0.00
180, -169868.30, -169820.92, -169911.97, -169914.98, -169935.20, -169925.69, -170004.95, -169954.39, -192.00, -64.00, 8368.00
181, -169870.09, -169822.61, -169913.75, -169916.66, -169936.98, -169927.36, -170006.72, -169956.00, 0.00, 0.00, 0.00
182, -169871.38, -169823.86, -169914.92, -169917.94, -169938.23, -169928.58, -170007.88, -169957.11, 0.00, 0.00, 0.00
183, -169874.92, -169827.41, -169918.48, -169921.52, -169941.84, -169932.16, -170011.50, -169960.78, 0.00, 0.00, 0.00
184, -169874.64, -169827.13, -169918.09, -169921.16, -169941.42, -169931.72, -170011.09, -169960.47, 0.00, 0.00, 0.00
185, -169877.30, -169829.89, -169920.80, -169923.81, -169944.16, -169934.47, -170013.89, -169963.27, 0.00, 0.00, 0.00
186, -169879.42, -169831.95, -169923.00, -169925.95, -169946.31, -169936.59, -170015.94, -169965.23, 0.00, 0.00, 0.00
187, -169881.41, -169833.98, -169925.05, -169927.98, -169948.38, -169938.67, -170018.00, -169967.33, 0.00, 0.00, 0.00
188, -169882.66, -169835.20, -169926.31, -169929.27, -169949.63, -169939.92, -170019.28, -169968.69, 0.00, 0.00, 0.00
189, -169884.58, -169837.13, -169928.19, -169931.23, -169951.55, -169941.84, -170021.13, -169970.64, 0.00, 0.00, 0.00
190, -169883.52, -169836.06, -169927.17, -169930.11, -169950.45, -169940.73, -170020.13, -169969.52, -176.00, -48.00, 8432.00
191, -169882.81, -169835.36, -169926.47, -169929.41, -169949.66, -169940.02, -170019.44, -169968.72, 0.00, 0.00, 0.00
192, -169884.89, -169837.47, -169928.55, -169931.52, -169951.80, -169942.13, -170021.58, -169970.84, 0.00, 0.00, 0.00
193, -169887.92, -169840.48, -169931.48, -169934.55, -169954.80, -169945.14, -170024.59, -169973.83, 0.00, 0.00, 0.00
194, -169888.83, -169841.48, -169932.39, -169935.53, -169955.64, -169946.08, -170025.48, -169974.77, 0.00, 0.00, 0.00
195, -169888.25, -169840.75, -169931.80, -169934.78, -169955.08, -169945.47, -170024.81, -169974.14, 0.00, 0.00, 0.00
196, -169890.80, -169843.28, -169934.36, -169937.25, -169957.61, -169947.95, -170027.34, -169976.67, 0.00, 0.00, 0.00
197, -169891.42, -169844.03, -169935.09, -169937.98, -169958.33, -169948.63, -170028.02, -169977.39, 0.00, 0.00, 0.00
198, -169892.19, -169844.84, -169935.84, -169938.78, -169959.11, -169949.38, -170028.78, -169978.22, 0.00, 0.00, 0.00
199, -169894.39, -169846.94, -169938.00, -169940.89, -169961.20, -169951.45, -170030.94, -169980.30, 0.00, 0.00, 0.00
200, -169896.63, -169849.14, -169940.13, -169943.08, -169963.42, -169953.72, -170033.09, -169982.39, 0.00, 0.00, 0.00
201, -169898.94, -169851.39, -169942.52, -169945.42, -169965.81, -169956.17, -170035.44, -169984.86, -144.00, -64.00, 8432.00
202, -169899.16, -169851.69, -169942.72, -169945.66, -169966.06, -169956.48, -170035.77, -169985.08, 0.00, 0.00, 0.00
203, -169900.77, -169853.34, -169944.36, -169947.28, -169967.67, -169958.03, -170037.27, -169986.70, 0.00, 0.00, 0.00
204, -169901.95, -169854.41, -169945.50, -169948.44, -169968.83, -169959.16, -170038.36, -169987.84, 0.00, 0.00, 0.00
205, -169902.36, -169854.86, -169945.89, -169948.84, -169969.23, -169959.59, -170038.92, -169988.28, 0.00, 0.00, 0.00
206, -169904.25, -169856.80, -169947.81, -169950.83, -169971.17, -169961.56, -170040.94, -169990.27, 0.00, 0.00, 0.00
207, -169906.59, -169859.14, -169950.14, -169953.16, -169973.52, -169963.91, -170043.17, -169992.59, 0.00, 0.00, 0.00
208, -169908.17, -169860.67, -169951.69, -169954.77, -169975.05, -169965.44, -170044.75, -169994.16, 0.00, 0.00, 0.00
209, -169909.80, -169862.23, -169953.31, -169956.41, -169976.66, -169966.95, -170046.30, -169995.72, 0.00, 0.00, 0.00
210, -169909.48, -169862.02, -169953.09, -169956.09, -169976.41, -169966.69, -170046.02, -169995.47, 0.00, 0.00, 0.00
211, -169912.13, -169864.58, -169955.63, -169958.66, -169978.95, -169969.31, -170048.67, -169998.06, -144.00, -80.00, 8416.00
212, -169911.72, -169864.11, -169955.27, -169958.28, -169978.59, -169968.97, -170048.28, -169997.70, 0.00, 0.00, 0.00
213, -169912.64, -169865.14, -169956.31, -169959.28, -169979.64, -169969.95, -170049.20, -169998.73, 0.00, 0.00, 0.00
214, -169914.58, -169867.03, -169958.17, -169961.16, -169981.53, -169971.78, -170051.11, -170000.59, 0.00, 0.00, 0.00
215, -169916.55, -169869.03, -169960.17, -169963.08, -169983.47, -169973.72, -170053.08, -170002.56, 0.00, 0.00, 0.00
216, -169920.45, -169872.94, -169964.00, -169967.05, -169987.38, -169977.59, -170057.00, -170006.56, 0.00, 0.00, 0.00
217, -169922.22, -169874.73, -169965.81, -169968.94, -169989.19, -169979.47, -170058.75, -170008.30, 0.00, 0.00, 0.00
218, -169923.98, -169876.52, -169967.55, -169970.58, -169990.95, -169981.25, -170060.53, -170009.98, 0.00, 0.00, 0.00
219, -169924.14, -169876.72, -169967.80, -169970.75, -169991.14, -169981.41, -170060.77, -170010.25, 0.00, 0.00, 0.00
220, -169924.58, -169877.09, -169968.14, -169971.13, -169991.58, -169981.77, -170061.14, -170010.61, 0.00, 0.00, 0.00
221, -169928.45, -169880.92, -169972.05, -169975.00, -169995.45, -169985.64, -170065.00, -170014.42, 0.00, 0.00, 0.00
222, -169930.09, -169882.50, -169973.59, -169976.67, -169996.98, -169987.25, -170066.61, -170016.06, -144.00, -64.00, 8384.00
223, -169930.58, -169883.11, -169974.14, -169977.19, -169997.53, -169987.72, -170067.16, -170016.58, 0.00, 0.00, 0.00
224, -169932.55, -169885.08, -169976.16, -169979.16, -169999.45, -169989.64, -170069.13, -170018.47, 0.00, 0.00, 0.00
225, -169934.83, -169887.33, -169978.44, -169981.45, -170001.75, -169991.98, -170071.33, -170020.77, 0.00, 0.00, 0.00
226, -169935.30, -169887.78, -169978.97, -169981.92, -170002.25, -169992.50, -170071.95, -170021.27, 0.00, 0.00, 0.00
227, -169935.38, -169887.88, -169979.00, -169981.97, -170002.31, -169992.66, -170071.98, -170021.31, 0.00, 0.00, 0.00
228, -169937.77, -169890.17, -169981.36, -169984.36, -170004.56, -169995.00, -170074.28, -170023.61, 0.00, 0.00, 0.00
229, -169941.63, -169894.06, -169985.25, -169988.19, -170008.53, -169998.89, -170078.11, -170027.56, 0.00, 0.00, 0.00
230, -169941.63, -169894.13, -169985.22, -169988.25, -170008.55, -169998.89, -170078.16, -170027.56, 0.00, 0.00, 0.00
231, -169942.00, -169894.55, -169985.56, -169988.56, -170008.91, -169999.19, -170078.53, -170027.95, 0.00, 0.00, 0.00
232, -169944.98, -169897.48, -169988.56, -169991.53, -170011.88, -170002.16, -170081.55, -170030.86, 0.00, 0.00, 0.00
233, -169946.61, -169899.05, -169990.08, -169993.08, -170013.44, -170003.67, -170083.17, -170032.42, -144.00, -32.00, 8416.00
234, -169948.59, -169901.02, -169992.19, -169995.14, -170015.47, -170005.70, -170085.06, -170034.44, 0.00, 0.00, 0.00
235, -169951.50, -169903.84, -169995.11, -169998.09, -170018.34, -170008.69, -170087.98, -170037.36, 0.00, 0.00, 0.00
236, -169952.31, -169904.72, -169995.97, -169998.88, -170019.19, -170009.52, -170088.81, -170038.25, 0.00, 0.00, 0.00
237, -169954.44, -169906.91, -169998.06, -170001.08, -170021.38, -170011.70, -170090.88, -170040.42, 0.00, 0.00, 0.00
238, -169957.27, -169909.78, -170000.75, -170003.83, -170024.06, -170014.50, -170093.64, -170043.13, 0.00, 0.00, 0.00
239, -169957.14, -169909.64, -170000.64, -170003.58, -170023.86, -170014.27, -170093.50, -170043.03, 0.00, 0.00, 0.00
240, -169959.00, -169911.50, -170002.59, -170005.58, -170025.83, -170016.23, -170095.41, -170044.94, 0.00, 0.00, 0.00
241, -169961.86, -169914.31, -170005.47, -170008.38, -170028.70, -170019.00, -170098.20, -170047.73, 0.00, 0.00, 0.00
242, -169962.30, -169914.78, -170005.89, -170008.81, -170029.17, -170019.52, -170098.72, -170048.17, 0.00, 0.00, 0.00
243, -169963.47, -169915.94, -170007.05, -170010.02, -170030.30, -170020.69, -170099.92, -170049.31, -144.00, -64.00, 8464.00
